# E (eV)   ldos(E)   pdos(E)   
 -20.358  0.335E-07  0.335E-07
 -20.348  0.982E-07  0.982E-07
 -20.338  0.276E-06  0.276E-06
 -20.328  0.741E-06  0.741E-06
 -20.318  0.191E-05  0.191E-05
 -20.308  0.471E-05  0.471E-05
 -20.298  0.111E-04  0.111E-04
 -20.288  0.253E-04  0.253E-04
 -20.278  0.549E-04  0.549E-04
 -20.268  0.114E-03  0.114E-03
 -20.258  0.228E-03  0.228E-03
 -20.248  0.437E-03  0.437E-03
 -20.238  0.802E-03  0.802E-03
 -20.228  0.141E-02  0.141E-02
 -20.218  0.239E-02  0.239E-02
 -20.208  0.387E-02  0.387E-02
 -20.198  0.603E-02  0.603E-02
 -20.188  0.901E-02  0.901E-02
 -20.178  0.130E-01  0.130E-01
 -20.168  0.179E-01  0.179E-01
 -20.158  0.238E-01  0.238E-01
 -20.148  0.304E-01  0.304E-01
 -20.138  0.376E-01  0.376E-01
 -20.128  0.448E-01  0.448E-01
 -20.118  0.517E-01  0.517E-01
 -20.108  0.578E-01  0.578E-01
 -20.098  0.628E-01  0.628E-01
 -20.088  0.666E-01  0.666E-01
 -20.078  0.692E-01  0.692E-01
 -20.068  0.707E-01  0.707E-01
 -20.058  0.715E-01  0.715E-01
 -20.048  0.720E-01  0.720E-01
 -20.038  0.726E-01  0.726E-01
 -20.028  0.738E-01  0.738E-01
 -20.018  0.760E-01  0.760E-01
 -20.008  0.794E-01  0.794E-01
 -19.998  0.843E-01  0.843E-01
 -19.988  0.906E-01  0.906E-01
 -19.978  0.981E-01  0.981E-01
 -19.968  0.107E+00  0.107E+00
 -19.958  0.115E+00  0.115E+00
 -19.948  0.124E+00  0.124E+00
 -19.938  0.132E+00  0.132E+00
 -19.928  0.139E+00  0.139E+00
 -19.918  0.144E+00  0.144E+00
 -19.908  0.147E+00  0.147E+00
 -19.898  0.149E+00  0.149E+00
 -19.888  0.150E+00  0.150E+00
 -19.878  0.149E+00  0.149E+00
 -19.868  0.148E+00  0.148E+00
 -19.858  0.146E+00  0.146E+00
 -19.848  0.145E+00  0.145E+00
 -19.838  0.143E+00  0.143E+00
 -19.828  0.142E+00  0.142E+00
 -19.818  0.141E+00  0.141E+00
 -19.808  0.140E+00  0.140E+00
 -19.798  0.139E+00  0.139E+00
 -19.788  0.138E+00  0.138E+00
 -19.778  0.138E+00  0.138E+00
 -19.768  0.137E+00  0.137E+00
 -19.758  0.137E+00  0.137E+00
 -19.748  0.136E+00  0.136E+00
 -19.738  0.136E+00  0.136E+00
 -19.728  0.136E+00  0.136E+00
 -19.718  0.136E+00  0.136E+00
 -19.708  0.135E+00  0.135E+00
 -19.698  0.134E+00  0.134E+00
 -19.688  0.134E+00  0.134E+00
 -19.678  0.133E+00  0.133E+00
 -19.668  0.133E+00  0.133E+00
 -19.658  0.133E+00  0.133E+00
 -19.648  0.133E+00  0.133E+00
 -19.638  0.133E+00  0.133E+00
 -19.628  0.133E+00  0.133E+00
 -19.618  0.132E+00  0.132E+00
 -19.608  0.131E+00  0.131E+00
 -19.598  0.130E+00  0.130E+00
 -19.588  0.129E+00  0.129E+00
 -19.578  0.129E+00  0.129E+00
 -19.568  0.129E+00  0.129E+00
 -19.558  0.129E+00  0.129E+00
 -19.548  0.130E+00  0.130E+00
 -19.538  0.130E+00  0.130E+00
 -19.528  0.130E+00  0.130E+00
 -19.518  0.129E+00  0.129E+00
 -19.508  0.128E+00  0.128E+00
 -19.498  0.127E+00  0.127E+00
 -19.488  0.126E+00  0.126E+00
 -19.478  0.125E+00  0.125E+00
 -19.468  0.125E+00  0.125E+00
 -19.458  0.125E+00  0.125E+00
 -19.448  0.126E+00  0.126E+00
 -19.438  0.126E+00  0.126E+00
 -19.428  0.126E+00  0.126E+00
 -19.418  0.126E+00  0.126E+00
 -19.408  0.126E+00  0.126E+00
 -19.398  0.126E+00  0.126E+00
 -19.388  0.125E+00  0.125E+00
 -19.378  0.124E+00  0.124E+00
 -19.368  0.124E+00  0.124E+00
 -19.358  0.123E+00  0.123E+00
 -19.348  0.122E+00  0.122E+00
 -19.338  0.121E+00  0.121E+00
 -19.328  0.121E+00  0.121E+00
 -19.318  0.121E+00  0.121E+00
 -19.308  0.121E+00  0.121E+00
 -19.298  0.122E+00  0.122E+00
 -19.288  0.123E+00  0.123E+00
 -19.278  0.124E+00  0.124E+00
 -19.268  0.124E+00  0.124E+00
 -19.258  0.124E+00  0.124E+00
 -19.248  0.123E+00  0.123E+00
 -19.238  0.121E+00  0.121E+00
 -19.228  0.119E+00  0.119E+00
 -19.218  0.116E+00  0.116E+00
 -19.208  0.114E+00  0.114E+00
 -19.198  0.114E+00  0.114E+00
 -19.188  0.114E+00  0.114E+00
 -19.178  0.116E+00  0.116E+00
 -19.168  0.119E+00  0.119E+00
 -19.158  0.122E+00  0.122E+00
 -19.148  0.124E+00  0.124E+00
 -19.138  0.125E+00  0.125E+00
 -19.128  0.125E+00  0.125E+00
 -19.118  0.123E+00  0.123E+00
 -19.108  0.119E+00  0.119E+00
 -19.098  0.115E+00  0.115E+00
 -19.088  0.111E+00  0.111E+00
 -19.078  0.108E+00  0.108E+00
 -19.068  0.106E+00  0.106E+00
 -19.058  0.107E+00  0.107E+00
 -19.048  0.109E+00  0.109E+00
 -19.038  0.114E+00  0.114E+00
 -19.028  0.118E+00  0.118E+00
 -19.018  0.123E+00  0.123E+00
 -19.008  0.126E+00  0.126E+00
 -18.998  0.127E+00  0.127E+00
 -18.988  0.125E+00  0.125E+00
 -18.978  0.122E+00  0.122E+00
 -18.968  0.117E+00  0.117E+00
 -18.958  0.111E+00  0.111E+00
 -18.948  0.106E+00  0.106E+00
 -18.938  0.102E+00  0.102E+00
 -18.928  0.100E+00  0.100E+00
 -18.918  0.100E+00  0.100E+00
 -18.908  0.103E+00  0.103E+00
 -18.898  0.108E+00  0.108E+00
 -18.888  0.114E+00  0.114E+00
 -18.878  0.120E+00  0.120E+00
 -18.868  0.124E+00  0.124E+00
 -18.858  0.127E+00  0.127E+00
 -18.848  0.127E+00  0.127E+00
 -18.838  0.125E+00  0.125E+00
 -18.828  0.120E+00  0.120E+00
 -18.818  0.113E+00  0.113E+00
 -18.808  0.106E+00  0.106E+00
 -18.798  0.999E-01  0.999E-01
 -18.788  0.956E-01  0.956E-01
 -18.778  0.937E-01  0.937E-01
 -18.768  0.947E-01  0.947E-01
 -18.758  0.982E-01  0.982E-01
 -18.748  0.104E+00  0.104E+00
 -18.738  0.110E+00  0.110E+00
 -18.728  0.117E+00  0.117E+00
 -18.718  0.122E+00  0.122E+00
 -18.708  0.126E+00  0.126E+00
 -18.698  0.127E+00  0.127E+00
 -18.688  0.126E+00  0.126E+00
 -18.678  0.122E+00  0.122E+00
 -18.668  0.116E+00  0.116E+00
 -18.658  0.109E+00  0.109E+00
 -18.648  0.101E+00  0.101E+00
 -18.638  0.950E-01  0.950E-01
 -18.628  0.906E-01  0.906E-01
 -18.618  0.888E-01  0.888E-01
 -18.608  0.898E-01  0.898E-01
 -18.598  0.935E-01  0.935E-01
 -18.588  0.994E-01  0.994E-01
 -18.578  0.106E+00  0.106E+00
 -18.568  0.114E+00  0.114E+00
 -18.558  0.120E+00  0.120E+00
 -18.548  0.124E+00  0.124E+00
 -18.538  0.126E+00  0.126E+00
 -18.528  0.126E+00  0.126E+00
 -18.518  0.122E+00  0.122E+00
 -18.508  0.116E+00  0.116E+00
 -18.498  0.110E+00  0.110E+00
 -18.488  0.102E+00  0.102E+00
 -18.478  0.958E-01  0.958E-01
 -18.468  0.904E-01  0.904E-01
 -18.458  0.870E-01  0.870E-01
 -18.448  0.860E-01  0.860E-01
 -18.438  0.873E-01  0.873E-01
 -18.428  0.910E-01  0.910E-01
 -18.418  0.965E-01  0.965E-01
 -18.408  0.103E+00  0.103E+00
 -18.398  0.110E+00  0.110E+00
 -18.388  0.117E+00  0.117E+00
 -18.378  0.122E+00  0.122E+00
 -18.368  0.124E+00  0.124E+00
 -18.358  0.124E+00  0.124E+00
 -18.348  0.122E+00  0.122E+00
 -18.338  0.117E+00  0.117E+00
 -18.328  0.111E+00  0.111E+00
 -18.318  0.104E+00  0.104E+00
 -18.308  0.967E-01  0.967E-01
 -18.298  0.907E-01  0.907E-01
 -18.288  0.863E-01  0.863E-01
 -18.278  0.838E-01  0.838E-01
 -18.268  0.836E-01  0.836E-01
 -18.258  0.856E-01  0.856E-01
 -18.248  0.897E-01  0.897E-01
 -18.238  0.952E-01  0.952E-01
 -18.228  0.102E+00  0.102E+00
 -18.218  0.108E+00  0.108E+00
 -18.208  0.114E+00  0.114E+00
 -18.198  0.119E+00  0.119E+00
 -18.188  0.121E+00  0.121E+00
 -18.178  0.121E+00  0.121E+00
 -18.168  0.119E+00  0.119E+00
 -18.158  0.115E+00  0.115E+00
 -18.148  0.110E+00  0.110E+00
 -18.138  0.104E+00  0.104E+00
 -18.128  0.974E-01  0.974E-01
 -18.118  0.918E-01  0.918E-01
 -18.108  0.873E-01  0.873E-01
 -18.098  0.843E-01  0.843E-01
 -18.088  0.829E-01  0.829E-01
 -18.078  0.832E-01  0.832E-01
 -18.068  0.852E-01  0.852E-01
 -18.058  0.888E-01  0.888E-01
 -18.048  0.938E-01  0.938E-01
 -18.038  0.996E-01  0.996E-01
 -18.028  0.106E+00  0.106E+00
 -18.018  0.111E+00  0.111E+00
 -18.008  0.116E+00  0.116E+00
 -17.998  0.119E+00  0.119E+00
 -17.988  0.119E+00  0.119E+00
 -17.978  0.117E+00  0.117E+00
 -17.968  0.114E+00  0.114E+00
 -17.958  0.108E+00  0.108E+00
 -17.948  0.102E+00  0.102E+00
 -17.938  0.960E-01  0.960E-01
 -17.928  0.904E-01  0.904E-01
 -17.918  0.861E-01  0.861E-01
 -17.908  0.833E-01  0.833E-01
 -17.898  0.822E-01  0.822E-01
 -17.888  0.828E-01  0.828E-01
 -17.878  0.847E-01  0.847E-01
 -17.868  0.878E-01  0.878E-01
 -17.858  0.914E-01  0.914E-01
 -17.848  0.955E-01  0.955E-01
 -17.838  0.996E-01  0.996E-01
 -17.828  0.104E+00  0.104E+00
 -17.818  0.107E+00  0.107E+00
 -17.808  0.110E+00  0.110E+00
 -17.798  0.113E+00  0.113E+00
 -17.788  0.114E+00  0.114E+00
 -17.778  0.113E+00  0.113E+00
 -17.768  0.111E+00  0.111E+00
 -17.758  0.108E+00  0.108E+00
 -17.748  0.103E+00  0.103E+00
 -17.738  0.976E-01  0.976E-01
 -17.728  0.918E-01  0.918E-01
 -17.718  0.864E-01  0.864E-01
 -17.708  0.821E-01  0.821E-01
 -17.698  0.795E-01  0.795E-01
 -17.688  0.790E-01  0.790E-01
 -17.678  0.805E-01  0.805E-01
 -17.668  0.838E-01  0.838E-01
 -17.658  0.885E-01  0.885E-01
 -17.648  0.938E-01  0.938E-01
 -17.638  0.989E-01  0.989E-01
 -17.628  0.103E+00  0.103E+00
 -17.618  0.106E+00  0.106E+00
 -17.608  0.108E+00  0.108E+00
 -17.598  0.108E+00  0.108E+00
 -17.588  0.107E+00  0.107E+00
 -17.578  0.106E+00  0.106E+00
 -17.568  0.105E+00  0.105E+00
 -17.558  0.104E+00  0.104E+00
 -17.548  0.102E+00  0.102E+00
 -17.538  0.999E-01  0.999E-01
 -17.528  0.973E-01  0.973E-01
 -17.518  0.941E-01  0.941E-01
 -17.508  0.904E-01  0.904E-01
 -17.498  0.866E-01  0.866E-01
 -17.488  0.832E-01  0.832E-01
 -17.478  0.807E-01  0.807E-01
 -17.468  0.796E-01  0.796E-01
 -17.458  0.802E-01  0.802E-01
 -17.448  0.826E-01  0.826E-01
 -17.438  0.866E-01  0.866E-01
 -17.428  0.917E-01  0.917E-01
 -17.418  0.972E-01  0.972E-01
 -17.408  0.102E+00  0.102E+00
 -17.398  0.106E+00  0.106E+00
 -17.388  0.109E+00  0.109E+00
 -17.378  0.109E+00  0.109E+00
 -17.368  0.108E+00  0.108E+00
 -17.358  0.105E+00  0.105E+00
 -17.348  0.102E+00  0.102E+00
 -17.338  0.982E-01  0.982E-01
 -17.328  0.948E-01  0.948E-01
 -17.318  0.921E-01  0.921E-01
 -17.308  0.899E-01  0.899E-01
 -17.298  0.884E-01  0.884E-01
 -17.288  0.874E-01  0.874E-01
 -17.278  0.866E-01  0.866E-01
 -17.268  0.860E-01  0.860E-01
 -17.258  0.856E-01  0.856E-01
 -17.248  0.854E-01  0.854E-01
 -17.238  0.856E-01  0.856E-01
 -17.228  0.863E-01  0.863E-01
 -17.218  0.874E-01  0.874E-01
 -17.208  0.891E-01  0.891E-01
 -17.198  0.913E-01  0.913E-01
 -17.188  0.938E-01  0.938E-01
 -17.178  0.966E-01  0.966E-01
 -17.168  0.994E-01  0.994E-01
 -17.158  0.102E+00  0.102E+00
 -17.148  0.104E+00  0.104E+00
 -17.138  0.105E+00  0.105E+00
 -17.128  0.105E+00  0.105E+00
 -17.118  0.103E+00  0.103E+00
 -17.108  0.101E+00  0.101E+00
 -17.098  0.968E-01  0.968E-01
 -17.088  0.923E-01  0.923E-01
 -17.078  0.877E-01  0.877E-01
 -17.068  0.837E-01  0.837E-01
 -17.058  0.808E-01  0.808E-01
 -17.048  0.793E-01  0.793E-01
 -17.038  0.794E-01  0.794E-01
 -17.028  0.810E-01  0.810E-01
 -17.018  0.838E-01  0.838E-01
 -17.008  0.873E-01  0.873E-01
 -16.998  0.909E-01  0.909E-01
 -16.988  0.940E-01  0.940E-01
 -16.978  0.963E-01  0.963E-01
 -16.968  0.974E-01  0.974E-01
 -16.958  0.973E-01  0.973E-01
 -16.948  0.963E-01  0.963E-01
 -16.938  0.948E-01  0.948E-01
 -16.928  0.934E-01  0.934E-01
 -16.918  0.926E-01  0.926E-01
 -16.908  0.928E-01  0.928E-01
 -16.898  0.939E-01  0.939E-01
 -16.888  0.956E-01  0.956E-01
 -16.878  0.974E-01  0.974E-01
 -16.868  0.986E-01  0.986E-01
 -16.858  0.985E-01  0.985E-01
 -16.848  0.968E-01  0.968E-01
 -16.838  0.936E-01  0.936E-01
 -16.828  0.892E-01  0.892E-01
 -16.818  0.844E-01  0.844E-01
 -16.808  0.800E-01  0.800E-01
 -16.798  0.769E-01  0.769E-01
 -16.788  0.758E-01  0.758E-01
 -16.778  0.769E-01  0.769E-01
 -16.768  0.801E-01  0.801E-01
 -16.758  0.849E-01  0.849E-01
 -16.748  0.905E-01  0.905E-01
 -16.738  0.959E-01  0.959E-01
 -16.728  0.100E+00  0.100E+00
 -16.718  0.103E+00  0.103E+00
 -16.708  0.103E+00  0.103E+00
 -16.698  0.101E+00  0.101E+00
 -16.688  0.982E-01  0.982E-01
 -16.678  0.942E-01  0.942E-01
 -16.668  0.902E-01  0.902E-01
 -16.658  0.872E-01  0.872E-01
 -16.648  0.856E-01  0.856E-01
 -16.638  0.856E-01  0.856E-01
 -16.628  0.868E-01  0.868E-01
 -16.618  0.889E-01  0.889E-01
 -16.608  0.910E-01  0.910E-01
 -16.598  0.926E-01  0.926E-01
 -16.588  0.931E-01  0.931E-01
 -16.578  0.923E-01  0.923E-01
 -16.568  0.904E-01  0.904E-01
 -16.558  0.877E-01  0.877E-01
 -16.548  0.849E-01  0.849E-01
 -16.538  0.824E-01  0.824E-01
 -16.528  0.810E-01  0.810E-01
 -16.518  0.809E-01  0.809E-01
 -16.508  0.823E-01  0.823E-01
 -16.498  0.850E-01  0.850E-01
 -16.488  0.885E-01  0.885E-01
 -16.478  0.923E-01  0.923E-01
 -16.468  0.959E-01  0.959E-01
 -16.458  0.985E-01  0.985E-01
 -16.448  0.999E-01  0.999E-01
 -16.438  0.999E-01  0.999E-01
 -16.428  0.985E-01  0.985E-01
 -16.418  0.960E-01  0.960E-01
 -16.408  0.929E-01  0.929E-01
 -16.398  0.897E-01  0.897E-01
 -16.388  0.868E-01  0.868E-01
 -16.378  0.847E-01  0.847E-01
 -16.368  0.834E-01  0.834E-01
 -16.358  0.830E-01  0.830E-01
 -16.348  0.832E-01  0.832E-01
 -16.338  0.839E-01  0.839E-01
 -16.328  0.848E-01  0.848E-01
 -16.318  0.859E-01  0.859E-01
 -16.308  0.871E-01  0.871E-01
 -16.298  0.882E-01  0.882E-01
 -16.288  0.893E-01  0.893E-01
 -16.278  0.903E-01  0.903E-01
 -16.268  0.911E-01  0.911E-01
 -16.258  0.916E-01  0.916E-01
 -16.248  0.918E-01  0.918E-01
 -16.238  0.916E-01  0.916E-01
 -16.228  0.910E-01  0.910E-01
 -16.218  0.902E-01  0.902E-01
 -16.208  0.894E-01  0.894E-01
 -16.198  0.887E-01  0.887E-01
 -16.188  0.886E-01  0.886E-01
 -16.178  0.890E-01  0.890E-01
 -16.168  0.900E-01  0.900E-01
 -16.158  0.912E-01  0.912E-01
 -16.148  0.924E-01  0.924E-01
 -16.138  0.932E-01  0.932E-01
 -16.128  0.932E-01  0.932E-01
 -16.118  0.923E-01  0.923E-01
 -16.108  0.906E-01  0.906E-01
 -16.098  0.882E-01  0.882E-01
 -16.088  0.854E-01  0.854E-01
 -16.078  0.828E-01  0.828E-01
 -16.068  0.808E-01  0.808E-01
 -16.058  0.796E-01  0.796E-01
 -16.048  0.795E-01  0.795E-01
 -16.038  0.808E-01  0.808E-01
 -16.028  0.833E-01  0.833E-01
 -16.018  0.868E-01  0.868E-01
 -16.008  0.909E-01  0.909E-01
 -15.998  0.950E-01  0.950E-01
 -15.988  0.985E-01  0.985E-01
 -15.978  0.101E+00  0.101E+00
 -15.968  0.101E+00  0.101E+00
 -15.958  0.100E+00  0.100E+00
 -15.948  0.969E-01  0.969E-01
 -15.938  0.926E-01  0.926E-01
 -15.928  0.878E-01  0.878E-01
 -15.918  0.834E-01  0.834E-01
 -15.908  0.804E-01  0.804E-01
 -15.898  0.792E-01  0.792E-01
 -15.888  0.800E-01  0.800E-01
 -15.878  0.827E-01  0.827E-01
 -15.868  0.865E-01  0.865E-01
 -15.858  0.906E-01  0.906E-01
 -15.848  0.939E-01  0.939E-01
 -15.838  0.958E-01  0.958E-01
 -15.828  0.958E-01  0.958E-01
 -15.818  0.940E-01  0.940E-01
 -15.808  0.908E-01  0.908E-01
 -15.798  0.870E-01  0.870E-01
 -15.788  0.835E-01  0.835E-01
 -15.778  0.809E-01  0.809E-01
 -15.768  0.799E-01  0.799E-01
 -15.758  0.806E-01  0.806E-01
 -15.748  0.830E-01  0.830E-01
 -15.738  0.868E-01  0.868E-01
 -15.728  0.914E-01  0.914E-01
 -15.718  0.960E-01  0.960E-01
 -15.708  0.100E+00  0.100E+00
 -15.698  0.103E+00  0.103E+00
 -15.688  0.104E+00  0.104E+00
 -15.678  0.103E+00  0.103E+00
 -15.668  0.100E+00  0.100E+00
 -15.658  0.959E-01  0.959E-01
 -15.648  0.907E-01  0.907E-01
 -15.638  0.854E-01  0.854E-01
 -15.628  0.809E-01  0.809E-01
 -15.618  0.779E-01  0.779E-01
 -15.608  0.769E-01  0.769E-01
 -15.598  0.780E-01  0.780E-01
 -15.588  0.811E-01  0.811E-01
 -15.578  0.855E-01  0.855E-01
 -15.568  0.902E-01  0.902E-01
 -15.558  0.944E-01  0.944E-01
 -15.548  0.970E-01  0.970E-01
 -15.538  0.979E-01  0.979E-01
 -15.528  0.968E-01  0.968E-01
 -15.518  0.944E-01  0.944E-01
 -15.508  0.913E-01  0.913E-01
 -15.498  0.885E-01  0.885E-01
 -15.488  0.867E-01  0.867E-01
 -15.478  0.864E-01  0.864E-01
 -15.468  0.877E-01  0.877E-01
 -15.458  0.903E-01  0.903E-01
 -15.448  0.937E-01  0.937E-01
 -15.438  0.971E-01  0.971E-01
 -15.428  0.100E+00  0.100E+00
 -15.418  0.102E+00  0.102E+00
 -15.408  0.103E+00  0.103E+00
 -15.398  0.102E+00  0.102E+00
 -15.388  0.100E+00  0.100E+00
 -15.378  0.975E-01  0.975E-01
 -15.368  0.942E-01  0.942E-01
 -15.358  0.907E-01  0.907E-01
 -15.348  0.873E-01  0.873E-01
 -15.338  0.846E-01  0.846E-01
 -15.328  0.828E-01  0.828E-01
 -15.318  0.823E-01  0.823E-01
 -15.308  0.833E-01  0.833E-01
 -15.298  0.857E-01  0.857E-01
 -15.288  0.892E-01  0.892E-01
 -15.278  0.932E-01  0.932E-01
 -15.268  0.969E-01  0.969E-01
 -15.258  0.997E-01  0.997E-01
 -15.248  0.101E+00  0.101E+00
 -15.238  0.101E+00  0.101E+00
 -15.228  0.100E+00  0.100E+00
 -15.218  0.986E-01  0.986E-01
 -15.208  0.973E-01  0.973E-01
 -15.198  0.968E-01  0.968E-01
 -15.188  0.974E-01  0.974E-01
 -15.178  0.992E-01  0.992E-01
 -15.168  0.102E+00  0.102E+00
 -15.158  0.105E+00  0.105E+00
 -15.148  0.107E+00  0.107E+00
 -15.138  0.108E+00  0.108E+00
 -15.128  0.109E+00  0.109E+00
 -15.118  0.108E+00  0.108E+00
 -15.108  0.106E+00  0.106E+00
 -15.098  0.103E+00  0.103E+00
 -15.088  0.100E+00  0.100E+00
 -15.078  0.973E-01  0.973E-01
 -15.068  0.951E-01  0.951E-01
 -15.058  0.939E-01  0.939E-01
 -15.048  0.937E-01  0.937E-01
 -15.038  0.949E-01  0.949E-01
 -15.028  0.973E-01  0.973E-01
 -15.018  0.101E+00  0.101E+00
 -15.008  0.105E+00  0.105E+00
 -14.998  0.109E+00  0.109E+00
 -14.988  0.112E+00  0.112E+00
 -14.978  0.115E+00  0.115E+00
 -14.968  0.117E+00  0.117E+00
 -14.958  0.117E+00  0.117E+00
 -14.948  0.118E+00  0.118E+00
 -14.938  0.119E+00  0.119E+00
 -14.928  0.121E+00  0.121E+00
 -14.918  0.125E+00  0.125E+00
 -14.908  0.129E+00  0.129E+00
 -14.898  0.135E+00  0.135E+00
 -14.888  0.141E+00  0.141E+00
 -14.878  0.145E+00  0.145E+00
 -14.868  0.149E+00  0.149E+00
 -14.858  0.150E+00  0.150E+00
 -14.848  0.150E+00  0.150E+00
 -14.838  0.147E+00  0.147E+00
 -14.828  0.144E+00  0.144E+00
 -14.818  0.140E+00  0.140E+00
 -14.808  0.135E+00  0.135E+00
 -14.798  0.131E+00  0.131E+00
 -14.788  0.126E+00  0.126E+00
 -14.778  0.122E+00  0.122E+00
 -14.768  0.118E+00  0.118E+00
 -14.758  0.114E+00  0.114E+00
 -14.748  0.111E+00  0.111E+00
 -14.738  0.108E+00  0.108E+00
 -14.728  0.106E+00  0.106E+00
 -14.718  0.103E+00  0.103E+00
 -14.708  0.100E+00  0.100E+00
 -14.698  0.970E-01  0.970E-01
 -14.688  0.938E-01  0.938E-01
 -14.678  0.909E-01  0.909E-01
 -14.668  0.887E-01  0.887E-01
 -14.658  0.876E-01  0.876E-01
 -14.648  0.877E-01  0.877E-01
 -14.638  0.889E-01  0.889E-01
 -14.628  0.906E-01  0.906E-01
 -14.618  0.923E-01  0.923E-01
 -14.608  0.933E-01  0.933E-01
 -14.598  0.930E-01  0.930E-01
 -14.588  0.911E-01  0.911E-01
 -14.578  0.878E-01  0.878E-01
 -14.568  0.834E-01  0.834E-01
 -14.558  0.784E-01  0.784E-01
 -14.548  0.733E-01  0.733E-01
 -14.538  0.688E-01  0.688E-01
 -14.528  0.651E-01  0.651E-01
 -14.518  0.624E-01  0.624E-01
 -14.508  0.606E-01  0.606E-01
 -14.498  0.595E-01  0.595E-01
 -14.488  0.588E-01  0.588E-01
 -14.478  0.583E-01  0.583E-01
 -14.468  0.577E-01  0.577E-01
 -14.458  0.570E-01  0.570E-01
 -14.448  0.562E-01  0.562E-01
 -14.438  0.555E-01  0.555E-01
 -14.428  0.550E-01  0.550E-01
 -14.418  0.549E-01  0.549E-01
 -14.408  0.553E-01  0.553E-01
 -14.398  0.563E-01  0.563E-01
 -14.388  0.578E-01  0.578E-01
 -14.378  0.599E-01  0.599E-01
 -14.368  0.626E-01  0.626E-01
 -14.358  0.658E-01  0.658E-01
 -14.348  0.692E-01  0.692E-01
 -14.338  0.725E-01  0.725E-01
 -14.328  0.750E-01  0.750E-01
 -14.318  0.762E-01  0.762E-01
 -14.308  0.753E-01  0.753E-01
 -14.298  0.720E-01  0.720E-01
 -14.288  0.661E-01  0.661E-01
 -14.278  0.581E-01  0.581E-01
 -14.268  0.487E-01  0.487E-01
 -14.258  0.390E-01  0.390E-01
 -14.248  0.304E-01  0.304E-01
 -14.238  0.238E-01  0.238E-01
 -14.228  0.200E-01  0.200E-01
 -14.218  0.192E-01  0.192E-01
 -14.208  0.213E-01  0.213E-01
 -14.198  0.257E-01  0.257E-01
 -14.188  0.313E-01  0.313E-01
 -14.178  0.374E-01  0.374E-01
 -14.168  0.430E-01  0.430E-01
 -14.158  0.475E-01  0.475E-01
 -14.148  0.506E-01  0.506E-01
 -14.138  0.523E-01  0.523E-01
 -14.128  0.530E-01  0.530E-01
 -14.118  0.532E-01  0.532E-01
 -14.108  0.531E-01  0.531E-01
 -14.098  0.533E-01  0.533E-01
 -14.088  0.537E-01  0.537E-01
 -14.078  0.541E-01  0.541E-01
 -14.068  0.540E-01  0.540E-01
 -14.058  0.529E-01  0.529E-01
 -14.048  0.503E-01  0.503E-01
 -14.038  0.461E-01  0.461E-01
 -14.028  0.406E-01  0.406E-01
 -14.018  0.342E-01  0.342E-01
 -14.008  0.277E-01  0.277E-01
 -13.998  0.219E-01  0.219E-01
 -13.988  0.175E-01  0.175E-01
 -13.978  0.149E-01  0.149E-01
 -13.968  0.142E-01  0.142E-01
 -13.958  0.151E-01  0.151E-01
 -13.948  0.175E-01  0.175E-01
 -13.938  0.208E-01  0.208E-01
 -13.928  0.246E-01  0.246E-01
 -13.918  0.285E-01  0.285E-01
 -13.908  0.321E-01  0.321E-01
 -13.898  0.351E-01  0.351E-01
 -13.888  0.373E-01  0.373E-01
 -13.878  0.387E-01  0.387E-01
 -13.868  0.393E-01  0.393E-01
 -13.858  0.394E-01  0.394E-01
 -13.848  0.392E-01  0.392E-01
 -13.838  0.391E-01  0.391E-01
 -13.828  0.391E-01  0.391E-01
 -13.818  0.394E-01  0.394E-01
 -13.808  0.399E-01  0.399E-01
 -13.798  0.403E-01  0.403E-01
 -13.788  0.404E-01  0.404E-01
 -13.778  0.401E-01  0.401E-01
 -13.768  0.395E-01  0.395E-01
 -13.758  0.385E-01  0.385E-01
 -13.748  0.376E-01  0.376E-01
 -13.738  0.370E-01  0.370E-01
 -13.728  0.368E-01  0.368E-01
 -13.718  0.372E-01  0.372E-01
 -13.708  0.382E-01  0.382E-01
 -13.698  0.396E-01  0.396E-01
 -13.688  0.413E-01  0.413E-01
 -13.678  0.433E-01  0.433E-01
 -13.668  0.454E-01  0.454E-01
 -13.658  0.476E-01  0.476E-01
 -13.648  0.498E-01  0.498E-01
 -13.638  0.519E-01  0.519E-01
 -13.628  0.538E-01  0.538E-01
 -13.618  0.553E-01  0.553E-01
 -13.608  0.561E-01  0.561E-01
 -13.598  0.564E-01  0.564E-01
 -13.588  0.560E-01  0.560E-01
 -13.578  0.550E-01  0.550E-01
 -13.568  0.537E-01  0.537E-01
 -13.558  0.521E-01  0.521E-01
 -13.548  0.505E-01  0.505E-01
 -13.538  0.489E-01  0.489E-01
 -13.528  0.474E-01  0.474E-01
 -13.518  0.460E-01  0.460E-01
 -13.508  0.449E-01  0.449E-01
 -13.498  0.441E-01  0.441E-01
 -13.488  0.436E-01  0.436E-01
 -13.478  0.433E-01  0.433E-01
 -13.468  0.433E-01  0.433E-01
 -13.458  0.436E-01  0.436E-01
 -13.448  0.440E-01  0.440E-01
 -13.438  0.446E-01  0.446E-01
 -13.428  0.452E-01  0.452E-01
 -13.418  0.460E-01  0.460E-01
 -13.408  0.468E-01  0.468E-01
 -13.398  0.476E-01  0.476E-01
 -13.388  0.484E-01  0.484E-01
 -13.378  0.491E-01  0.491E-01
 -13.368  0.496E-01  0.496E-01
 -13.358  0.499E-01  0.499E-01
 -13.348  0.501E-01  0.501E-01
 -13.338  0.501E-01  0.501E-01
 -13.328  0.499E-01  0.499E-01
 -13.318  0.497E-01  0.497E-01
 -13.308  0.493E-01  0.493E-01
 -13.298  0.487E-01  0.487E-01
 -13.288  0.480E-01  0.480E-01
 -13.278  0.472E-01  0.472E-01
 -13.268  0.463E-01  0.463E-01
 -13.258  0.453E-01  0.453E-01
 -13.248  0.444E-01  0.444E-01
 -13.238  0.437E-01  0.437E-01
 -13.228  0.433E-01  0.433E-01
 -13.218  0.433E-01  0.433E-01
 -13.208  0.437E-01  0.437E-01
 -13.198  0.445E-01  0.445E-01
 -13.188  0.456E-01  0.456E-01
 -13.178  0.469E-01  0.469E-01
 -13.168  0.483E-01  0.483E-01
 -13.158  0.497E-01  0.497E-01
 -13.148  0.510E-01  0.510E-01
 -13.138  0.522E-01  0.522E-01
 -13.128  0.534E-01  0.534E-01
 -13.118  0.546E-01  0.546E-01
 -13.108  0.556E-01  0.556E-01
 -13.098  0.565E-01  0.565E-01
 -13.088  0.571E-01  0.571E-01
 -13.078  0.574E-01  0.574E-01
 -13.068  0.571E-01  0.571E-01
 -13.058  0.566E-01  0.566E-01
 -13.048  0.561E-01  0.561E-01
 -13.038  0.561E-01  0.561E-01
 -13.028  0.569E-01  0.569E-01
 -13.018  0.590E-01  0.590E-01
 -13.008  0.626E-01  0.626E-01
 -12.998  0.673E-01  0.673E-01
 -12.988  0.730E-01  0.730E-01
 -12.978  0.789E-01  0.789E-01
 -12.968  0.843E-01  0.843E-01
 -12.958  0.886E-01  0.886E-01
 -12.948  0.912E-01  0.912E-01
 -12.938  0.920E-01  0.920E-01
 -12.928  0.910E-01  0.910E-01
 -12.918  0.888E-01  0.888E-01
 -12.908  0.859E-01  0.859E-01
 -12.898  0.829E-01  0.829E-01
 -12.888  0.804E-01  0.804E-01
 -12.878  0.785E-01  0.785E-01
 -12.868  0.775E-01  0.775E-01
 -12.858  0.771E-01  0.771E-01
 -12.848  0.771E-01  0.771E-01
 -12.838  0.771E-01  0.771E-01
 -12.828  0.770E-01  0.770E-01
 -12.818  0.765E-01  0.765E-01
 -12.808  0.755E-01  0.755E-01
 -12.798  0.741E-01  0.741E-01
 -12.788  0.724E-01  0.724E-01
 -12.778  0.706E-01  0.706E-01
 -12.768  0.688E-01  0.688E-01
 -12.758  0.671E-01  0.671E-01
 -12.748  0.656E-01  0.656E-01
 -12.738  0.643E-01  0.643E-01
 -12.728  0.633E-01  0.633E-01
 -12.718  0.623E-01  0.623E-01
 -12.708  0.615E-01  0.615E-01
 -12.698  0.610E-01  0.610E-01
 -12.688  0.608E-01  0.608E-01
 -12.678  0.611E-01  0.611E-01
 -12.668  0.619E-01  0.619E-01
 -12.658  0.631E-01  0.631E-01
 -12.648  0.646E-01  0.646E-01
 -12.638  0.662E-01  0.662E-01
 -12.628  0.675E-01  0.675E-01
 -12.618  0.682E-01  0.682E-01
 -12.608  0.680E-01  0.680E-01
 -12.598  0.670E-01  0.670E-01
 -12.588  0.651E-01  0.651E-01
 -12.578  0.625E-01  0.625E-01
 -12.568  0.597E-01  0.597E-01
 -12.558  0.570E-01  0.570E-01
 -12.548  0.548E-01  0.548E-01
 -12.538  0.536E-01  0.536E-01
 -12.528  0.534E-01  0.534E-01
 -12.518  0.542E-01  0.542E-01
 -12.508  0.557E-01  0.557E-01
 -12.498  0.575E-01  0.575E-01
 -12.488  0.593E-01  0.593E-01
 -12.478  0.606E-01  0.606E-01
 -12.468  0.614E-01  0.614E-01
 -12.458  0.616E-01  0.616E-01
 -12.448  0.614E-01  0.614E-01
 -12.438  0.609E-01  0.609E-01
 -12.428  0.605E-01  0.605E-01
 -12.418  0.600E-01  0.600E-01
 -12.408  0.597E-01  0.597E-01
 -12.398  0.593E-01  0.593E-01
 -12.388  0.586E-01  0.586E-01
 -12.378  0.577E-01  0.577E-01
 -12.368  0.563E-01  0.563E-01
 -12.358  0.545E-01  0.545E-01
 -12.348  0.526E-01  0.526E-01
 -12.338  0.508E-01  0.508E-01
 -12.328  0.495E-01  0.495E-01
 -12.318  0.490E-01  0.490E-01
 -12.308  0.494E-01  0.494E-01
 -12.298  0.507E-01  0.507E-01
 -12.288  0.526E-01  0.526E-01
 -12.278  0.549E-01  0.549E-01
 -12.268  0.572E-01  0.572E-01
 -12.258  0.589E-01  0.589E-01
 -12.248  0.599E-01  0.599E-01
 -12.238  0.600E-01  0.600E-01
 -12.228  0.593E-01  0.593E-01
 -12.218  0.580E-01  0.580E-01
 -12.208  0.564E-01  0.564E-01
 -12.198  0.546E-01  0.546E-01
 -12.188  0.530E-01  0.530E-01
 -12.178  0.517E-01  0.517E-01
 -12.168  0.506E-01  0.506E-01
 -12.158  0.497E-01  0.497E-01
 -12.148  0.489E-01  0.489E-01
 -12.138  0.482E-01  0.482E-01
 -12.128  0.474E-01  0.474E-01
 -12.118  0.468E-01  0.468E-01
 -12.108  0.465E-01  0.465E-01
 -12.098  0.466E-01  0.466E-01
 -12.088  0.474E-01  0.474E-01
 -12.078  0.489E-01  0.489E-01
 -12.068  0.510E-01  0.510E-01
 -12.058  0.534E-01  0.534E-01
 -12.048  0.558E-01  0.558E-01
 -12.038  0.577E-01  0.577E-01
 -12.028  0.586E-01  0.586E-01
 -12.018  0.583E-01  0.583E-01
 -12.008  0.567E-01  0.567E-01
 -11.998  0.541E-01  0.541E-01
 -11.988  0.509E-01  0.509E-01
 -11.978  0.478E-01  0.478E-01
 -11.968  0.452E-01  0.452E-01
 -11.958  0.434E-01  0.434E-01
 -11.948  0.426E-01  0.426E-01
 -11.938  0.427E-01  0.427E-01
 -11.928  0.435E-01  0.435E-01
 -11.918  0.446E-01  0.446E-01
 -11.908  0.458E-01  0.458E-01
 -11.898  0.467E-01  0.467E-01
 -11.888  0.474E-01  0.474E-01
 -11.878  0.478E-01  0.478E-01
 -11.868  0.479E-01  0.479E-01
 -11.858  0.481E-01  0.481E-01
 -11.848  0.485E-01  0.485E-01
 -11.838  0.491E-01  0.491E-01
 -11.828  0.499E-01  0.499E-01
 -11.818  0.509E-01  0.509E-01
 -11.808  0.517E-01  0.517E-01
 -11.798  0.521E-01  0.521E-01
 -11.788  0.520E-01  0.520E-01
 -11.778  0.511E-01  0.511E-01
 -11.768  0.496E-01  0.496E-01
 -11.758  0.475E-01  0.475E-01
 -11.748  0.452E-01  0.452E-01
 -11.738  0.428E-01  0.428E-01
 -11.728  0.408E-01  0.408E-01
 -11.718  0.392E-01  0.392E-01
 -11.708  0.383E-01  0.383E-01
 -11.698  0.380E-01  0.380E-01
 -11.688  0.385E-01  0.385E-01
 -11.678  0.397E-01  0.397E-01
 -11.668  0.414E-01  0.414E-01
 -11.658  0.434E-01  0.434E-01
 -11.648  0.457E-01  0.457E-01
 -11.638  0.479E-01  0.479E-01
 -11.628  0.497E-01  0.497E-01
 -11.618  0.510E-01  0.510E-01
 -11.608  0.515E-01  0.515E-01
 -11.598  0.512E-01  0.512E-01
 -11.588  0.502E-01  0.502E-01
 -11.578  0.485E-01  0.485E-01
 -11.568  0.465E-01  0.465E-01
 -11.558  0.442E-01  0.442E-01
 -11.548  0.421E-01  0.421E-01
 -11.538  0.402E-01  0.402E-01
 -11.528  0.387E-01  0.387E-01
 -11.518  0.378E-01  0.378E-01
 -11.508  0.373E-01  0.373E-01
 -11.498  0.373E-01  0.373E-01
 -11.488  0.378E-01  0.378E-01
 -11.478  0.386E-01  0.386E-01
 -11.468  0.396E-01  0.396E-01
 -11.458  0.408E-01  0.408E-01
 -11.448  0.420E-01  0.420E-01
 -11.438  0.431E-01  0.431E-01
 -11.428  0.440E-01  0.440E-01
 -11.418  0.446E-01  0.446E-01
 -11.408  0.448E-01  0.448E-01
 -11.398  0.446E-01  0.446E-01
 -11.388  0.440E-01  0.440E-01
 -11.378  0.433E-01  0.433E-01
 -11.368  0.425E-01  0.425E-01
 -11.358  0.418E-01  0.418E-01
 -11.348  0.414E-01  0.414E-01
 -11.338  0.413E-01  0.413E-01
 -11.328  0.414E-01  0.414E-01
 -11.318  0.414E-01  0.414E-01
 -11.308  0.413E-01  0.413E-01
 -11.298  0.409E-01  0.409E-01
 -11.288  0.401E-01  0.401E-01
 -11.278  0.391E-01  0.391E-01
 -11.268  0.379E-01  0.379E-01
 -11.258  0.369E-01  0.369E-01
 -11.248  0.361E-01  0.361E-01
 -11.238  0.357E-01  0.357E-01
 -11.228  0.357E-01  0.357E-01
 -11.218  0.361E-01  0.361E-01
 -11.208  0.367E-01  0.367E-01
 -11.198  0.376E-01  0.376E-01
 -11.188  0.385E-01  0.385E-01
 -11.178  0.395E-01  0.395E-01
 -11.168  0.404E-01  0.404E-01
 -11.158  0.412E-01  0.412E-01
 -11.148  0.418E-01  0.418E-01
 -11.138  0.421E-01  0.421E-01
 -11.128  0.421E-01  0.421E-01
 -11.118  0.419E-01  0.419E-01
 -11.108  0.414E-01  0.414E-01
 -11.098  0.405E-01  0.405E-01
 -11.088  0.393E-01  0.393E-01
 -11.078  0.380E-01  0.380E-01
 -11.068  0.366E-01  0.366E-01
 -11.058  0.352E-01  0.352E-01
 -11.048  0.343E-01  0.343E-01
 -11.038  0.338E-01  0.338E-01
 -11.028  0.339E-01  0.339E-01
 -11.018  0.346E-01  0.346E-01
 -11.008  0.356E-01  0.356E-01
 -10.998  0.369E-01  0.369E-01
 -10.988  0.380E-01  0.380E-01
 -10.978  0.388E-01  0.388E-01
 -10.968  0.391E-01  0.391E-01
 -10.958  0.391E-01  0.391E-01
 -10.948  0.386E-01  0.386E-01
 -10.938  0.378E-01  0.378E-01
 -10.928  0.369E-01  0.369E-01
 -10.918  0.361E-01  0.361E-01
 -10.908  0.354E-01  0.354E-01
 -10.898  0.349E-01  0.349E-01
 -10.888  0.349E-01  0.349E-01
 -10.878  0.352E-01  0.352E-01
 -10.868  0.360E-01  0.360E-01
 -10.858  0.371E-01  0.371E-01
 -10.848  0.383E-01  0.383E-01
 -10.838  0.395E-01  0.395E-01
 -10.828  0.405E-01  0.405E-01
 -10.818  0.412E-01  0.412E-01
 -10.808  0.415E-01  0.415E-01
 -10.798  0.413E-01  0.413E-01
 -10.788  0.407E-01  0.407E-01
 -10.778  0.397E-01  0.397E-01
 -10.768  0.383E-01  0.383E-01
 -10.758  0.366E-01  0.366E-01
 -10.748  0.347E-01  0.347E-01
 -10.738  0.327E-01  0.327E-01
 -10.728  0.308E-01  0.308E-01
 -10.718  0.294E-01  0.294E-01
 -10.708  0.286E-01  0.286E-01
 -10.698  0.285E-01  0.285E-01
 -10.688  0.293E-01  0.293E-01
 -10.678  0.308E-01  0.308E-01
 -10.668  0.328E-01  0.328E-01
 -10.658  0.352E-01  0.352E-01
 -10.648  0.377E-01  0.377E-01
 -10.638  0.400E-01  0.400E-01
 -10.628  0.420E-01  0.420E-01
 -10.618  0.434E-01  0.434E-01
 -10.608  0.442E-01  0.442E-01
 -10.598  0.443E-01  0.443E-01
 -10.588  0.437E-01  0.437E-01
 -10.578  0.425E-01  0.425E-01
 -10.568  0.408E-01  0.408E-01
 -10.558  0.386E-01  0.386E-01
 -10.548  0.362E-01  0.362E-01
 -10.538  0.338E-01  0.338E-01
 -10.528  0.317E-01  0.317E-01
 -10.518  0.300E-01  0.300E-01
 -10.508  0.289E-01  0.289E-01
 -10.498  0.285E-01  0.285E-01
 -10.488  0.287E-01  0.287E-01
 -10.478  0.295E-01  0.295E-01
 -10.468  0.306E-01  0.306E-01
 -10.458  0.321E-01  0.321E-01
 -10.448  0.336E-01  0.336E-01
 -10.438  0.349E-01  0.349E-01
 -10.428  0.361E-01  0.361E-01
 -10.418  0.370E-01  0.370E-01
 -10.408  0.377E-01  0.377E-01
 -10.398  0.380E-01  0.380E-01
 -10.388  0.382E-01  0.382E-01
 -10.378  0.382E-01  0.382E-01
 -10.368  0.381E-01  0.381E-01
 -10.358  0.380E-01  0.380E-01
 -10.348  0.378E-01  0.378E-01
 -10.338  0.375E-01  0.375E-01
 -10.328  0.372E-01  0.372E-01
 -10.318  0.367E-01  0.367E-01
 -10.308  0.360E-01  0.360E-01
 -10.298  0.353E-01  0.353E-01
 -10.288  0.346E-01  0.346E-01
 -10.278  0.339E-01  0.339E-01
 -10.268  0.334E-01  0.334E-01
 -10.258  0.330E-01  0.330E-01
 -10.248  0.327E-01  0.327E-01
 -10.238  0.325E-01  0.325E-01
 -10.228  0.323E-01  0.323E-01
 -10.218  0.320E-01  0.320E-01
 -10.208  0.316E-01  0.316E-01
 -10.198  0.313E-01  0.313E-01
 -10.188  0.310E-01  0.310E-01
 -10.178  0.311E-01  0.311E-01
 -10.168  0.315E-01  0.315E-01
 -10.158  0.324E-01  0.324E-01
 -10.148  0.338E-01  0.338E-01
 -10.138  0.353E-01  0.353E-01
 -10.128  0.369E-01  0.369E-01
 -10.118  0.382E-01  0.382E-01
 -10.108  0.391E-01  0.391E-01
 -10.098  0.394E-01  0.394E-01
 -10.088  0.390E-01  0.390E-01
 -10.078  0.381E-01  0.381E-01
 -10.068  0.369E-01  0.369E-01
 -10.058  0.354E-01  0.354E-01
 -10.048  0.338E-01  0.338E-01
 -10.038  0.322E-01  0.322E-01
 -10.028  0.308E-01  0.308E-01
 -10.018  0.296E-01  0.296E-01
 -10.008  0.286E-01  0.286E-01
  -9.998  0.280E-01  0.280E-01
  -9.988  0.279E-01  0.279E-01
  -9.978  0.283E-01  0.283E-01
  -9.968  0.292E-01  0.292E-01
  -9.958  0.307E-01  0.307E-01
  -9.948  0.326E-01  0.326E-01
  -9.938  0.348E-01  0.348E-01
  -9.928  0.369E-01  0.369E-01
  -9.918  0.386E-01  0.386E-01
  -9.908  0.398E-01  0.398E-01
  -9.898  0.402E-01  0.402E-01
  -9.888  0.399E-01  0.399E-01
  -9.878  0.389E-01  0.389E-01
  -9.868  0.372E-01  0.372E-01
  -9.858  0.352E-01  0.352E-01
  -9.848  0.330E-01  0.330E-01
  -9.838  0.307E-01  0.307E-01
  -9.828  0.287E-01  0.287E-01
  -9.818  0.271E-01  0.271E-01
  -9.808  0.260E-01  0.260E-01
  -9.798  0.254E-01  0.254E-01
  -9.788  0.255E-01  0.255E-01
  -9.778  0.262E-01  0.262E-01
  -9.768  0.274E-01  0.274E-01
  -9.758  0.290E-01  0.290E-01
  -9.748  0.310E-01  0.310E-01
  -9.738  0.333E-01  0.333E-01
  -9.728  0.356E-01  0.356E-01
  -9.718  0.378E-01  0.378E-01
  -9.708  0.395E-01  0.395E-01
  -9.698  0.407E-01  0.407E-01
  -9.688  0.411E-01  0.411E-01
  -9.678  0.405E-01  0.405E-01
  -9.668  0.391E-01  0.391E-01
  -9.658  0.368E-01  0.368E-01
  -9.648  0.339E-01  0.339E-01
  -9.638  0.308E-01  0.308E-01
  -9.628  0.277E-01  0.277E-01
  -9.618  0.251E-01  0.251E-01
  -9.608  0.231E-01  0.231E-01
  -9.598  0.222E-01  0.222E-01
  -9.588  0.223E-01  0.223E-01
  -9.578  0.234E-01  0.234E-01
  -9.568  0.255E-01  0.255E-01
  -9.558  0.281E-01  0.281E-01
  -9.548  0.311E-01  0.311E-01
  -9.538  0.341E-01  0.341E-01
  -9.528  0.369E-01  0.369E-01
  -9.518  0.392E-01  0.392E-01
  -9.508  0.408E-01  0.408E-01
  -9.498  0.416E-01  0.416E-01
  -9.488  0.416E-01  0.416E-01
  -9.478  0.406E-01  0.406E-01
  -9.468  0.388E-01  0.388E-01
  -9.458  0.362E-01  0.362E-01
  -9.448  0.330E-01  0.330E-01
  -9.438  0.294E-01  0.294E-01
  -9.428  0.258E-01  0.258E-01
  -9.418  0.226E-01  0.226E-01
  -9.408  0.201E-01  0.201E-01
  -9.398  0.185E-01  0.185E-01
  -9.388  0.181E-01  0.181E-01
  -9.378  0.188E-01  0.188E-01
  -9.368  0.206E-01  0.206E-01
  -9.358  0.233E-01  0.233E-01
  -9.348  0.266E-01  0.266E-01
  -9.338  0.302E-01  0.302E-01
  -9.328  0.338E-01  0.338E-01
  -9.318  0.372E-01  0.372E-01
  -9.308  0.401E-01  0.401E-01
  -9.298  0.424E-01  0.424E-01
  -9.288  0.440E-01  0.440E-01
  -9.278  0.447E-01  0.447E-01
  -9.268  0.444E-01  0.444E-01
  -9.258  0.430E-01  0.430E-01
  -9.248  0.407E-01  0.407E-01
  -9.238  0.373E-01  0.373E-01
  -9.228  0.332E-01  0.332E-01
  -9.218  0.287E-01  0.287E-01
  -9.208  0.242E-01  0.242E-01
  -9.198  0.201E-01  0.201E-01
  -9.188  0.169E-01  0.169E-01
  -9.178  0.149E-01  0.149E-01
  -9.168  0.143E-01  0.143E-01
  -9.158  0.150E-01  0.150E-01
  -9.148  0.170E-01  0.170E-01
  -9.138  0.200E-01  0.200E-01
  -9.128  0.237E-01  0.237E-01
  -9.118  0.276E-01  0.276E-01
  -9.108  0.314E-01  0.314E-01
  -9.098  0.349E-01  0.349E-01
  -9.088  0.378E-01  0.378E-01
  -9.078  0.400E-01  0.400E-01
  -9.068  0.413E-01  0.413E-01
  -9.058  0.417E-01  0.417E-01
  -9.048  0.410E-01  0.410E-01
  -9.038  0.394E-01  0.394E-01
  -9.028  0.369E-01  0.369E-01
  -9.018  0.339E-01  0.339E-01
  -9.008  0.306E-01  0.306E-01
  -8.998  0.275E-01  0.275E-01
  -8.988  0.250E-01  0.250E-01
  -8.978  0.232E-01  0.232E-01
  -8.968  0.223E-01  0.223E-01
  -8.958  0.222E-01  0.222E-01
  -8.948  0.228E-01  0.228E-01
  -8.938  0.238E-01  0.238E-01
  -8.928  0.251E-01  0.251E-01
  -8.918  0.265E-01  0.265E-01
  -8.908  0.278E-01  0.278E-01
  -8.898  0.290E-01  0.290E-01
  -8.888  0.302E-01  0.302E-01
  -8.878  0.312E-01  0.312E-01
  -8.868  0.320E-01  0.320E-01
  -8.858  0.326E-01  0.326E-01
  -8.848  0.329E-01  0.329E-01
  -8.838  0.327E-01  0.327E-01
  -8.828  0.320E-01  0.320E-01
  -8.818  0.306E-01  0.306E-01
  -8.808  0.287E-01  0.287E-01
  -8.798  0.265E-01  0.265E-01
  -8.788  0.244E-01  0.244E-01
  -8.778  0.225E-01  0.225E-01
  -8.768  0.212E-01  0.212E-01
  -8.758  0.208E-01  0.208E-01
  -8.748  0.212E-01  0.212E-01
  -8.738  0.224E-01  0.224E-01
  -8.728  0.242E-01  0.242E-01
  -8.718  0.264E-01  0.264E-01
  -8.708  0.288E-01  0.288E-01
  -8.698  0.312E-01  0.312E-01
  -8.688  0.335E-01  0.335E-01
  -8.678  0.355E-01  0.355E-01
  -8.668  0.371E-01  0.371E-01
  -8.658  0.382E-01  0.382E-01
  -8.648  0.387E-01  0.387E-01
  -8.638  0.384E-01  0.384E-01
  -8.628  0.371E-01  0.371E-01
  -8.618  0.349E-01  0.349E-01
  -8.608  0.318E-01  0.318E-01
  -8.598  0.279E-01  0.279E-01
  -8.588  0.237E-01  0.237E-01
  -8.578  0.197E-01  0.197E-01
  -8.568  0.162E-01  0.162E-01
  -8.558  0.137E-01  0.137E-01
  -8.548  0.126E-01  0.126E-01
  -8.538  0.130E-01  0.130E-01
  -8.528  0.147E-01  0.147E-01
  -8.518  0.175E-01  0.175E-01
  -8.508  0.210E-01  0.210E-01
  -8.498  0.248E-01  0.248E-01
  -8.488  0.284E-01  0.284E-01
  -8.478  0.316E-01  0.316E-01
  -8.468  0.341E-01  0.341E-01
  -8.458  0.359E-01  0.359E-01
  -8.448  0.368E-01  0.368E-01
  -8.438  0.370E-01  0.370E-01
  -8.428  0.366E-01  0.366E-01
  -8.418  0.358E-01  0.358E-01
  -8.408  0.345E-01  0.345E-01
  -8.398  0.330E-01  0.330E-01
  -8.388  0.311E-01  0.311E-01
  -8.378  0.290E-01  0.290E-01
  -8.368  0.267E-01  0.267E-01
  -8.358  0.244E-01  0.244E-01
  -8.348  0.222E-01  0.222E-01
  -8.338  0.202E-01  0.202E-01
  -8.328  0.188E-01  0.188E-01
  -8.318  0.179E-01  0.179E-01
  -8.308  0.177E-01  0.177E-01
  -8.298  0.182E-01  0.182E-01
  -8.288  0.192E-01  0.192E-01
  -8.278  0.208E-01  0.208E-01
  -8.268  0.228E-01  0.228E-01
  -8.258  0.249E-01  0.249E-01
  -8.248  0.270E-01  0.270E-01
  -8.238  0.290E-01  0.290E-01
  -8.228  0.306E-01  0.306E-01
  -8.218  0.318E-01  0.318E-01
  -8.208  0.325E-01  0.325E-01
  -8.198  0.326E-01  0.326E-01
  -8.188  0.320E-01  0.320E-01
  -8.178  0.309E-01  0.309E-01
  -8.168  0.292E-01  0.292E-01
  -8.158  0.270E-01  0.270E-01
  -8.148  0.246E-01  0.246E-01
  -8.138  0.223E-01  0.223E-01
  -8.128  0.201E-01  0.201E-01
  -8.118  0.185E-01  0.185E-01
  -8.108  0.176E-01  0.176E-01
  -8.098  0.174E-01  0.174E-01
  -8.088  0.181E-01  0.181E-01
  -8.078  0.194E-01  0.194E-01
  -8.068  0.214E-01  0.214E-01
  -8.058  0.236E-01  0.236E-01
  -8.048  0.261E-01  0.261E-01
  -8.038  0.284E-01  0.284E-01
  -8.028  0.305E-01  0.305E-01
  -8.018  0.320E-01  0.320E-01
  -8.008  0.330E-01  0.330E-01
  -7.998  0.331E-01  0.331E-01
  -7.988  0.326E-01  0.326E-01
  -7.978  0.312E-01  0.312E-01
  -7.968  0.293E-01  0.293E-01
  -7.958  0.269E-01  0.269E-01
  -7.948  0.243E-01  0.243E-01
  -7.938  0.216E-01  0.216E-01
  -7.928  0.192E-01  0.192E-01
  -7.918  0.172E-01  0.172E-01
  -7.908  0.159E-01  0.159E-01
  -7.898  0.152E-01  0.152E-01
  -7.888  0.153E-01  0.153E-01
  -7.878  0.160E-01  0.160E-01
  -7.868  0.172E-01  0.172E-01
  -7.858  0.188E-01  0.188E-01
  -7.848  0.204E-01  0.204E-01
  -7.838  0.221E-01  0.221E-01
  -7.828  0.237E-01  0.237E-01
  -7.818  0.251E-01  0.251E-01
  -7.808  0.263E-01  0.263E-01
  -7.798  0.275E-01  0.275E-01
  -7.788  0.285E-01  0.285E-01
  -7.778  0.294E-01  0.294E-01
  -7.768  0.300E-01  0.300E-01
  -7.758  0.303E-01  0.303E-01
  -7.748  0.300E-01  0.300E-01
  -7.738  0.292E-01  0.292E-01
  -7.728  0.278E-01  0.278E-01
  -7.718  0.260E-01  0.260E-01
  -7.708  0.240E-01  0.240E-01
  -7.698  0.219E-01  0.219E-01
  -7.688  0.200E-01  0.200E-01
  -7.678  0.185E-01  0.185E-01
  -7.668  0.175E-01  0.175E-01
  -7.658  0.169E-01  0.169E-01
  -7.648  0.169E-01  0.169E-01
  -7.638  0.172E-01  0.172E-01
  -7.628  0.177E-01  0.177E-01
  -7.618  0.184E-01  0.184E-01
  -7.608  0.192E-01  0.192E-01
  -7.598  0.200E-01  0.200E-01
  -7.588  0.208E-01  0.208E-01
  -7.578  0.216E-01  0.216E-01
  -7.568  0.224E-01  0.224E-01
  -7.558  0.231E-01  0.231E-01
  -7.548  0.237E-01  0.237E-01
  -7.538  0.242E-01  0.242E-01
  -7.528  0.244E-01  0.244E-01
  -7.518  0.243E-01  0.243E-01
  -7.508  0.239E-01  0.239E-01
  -7.498  0.233E-01  0.233E-01
  -7.488  0.226E-01  0.226E-01
  -7.478  0.218E-01  0.218E-01
  -7.468  0.211E-01  0.211E-01
  -7.458  0.206E-01  0.206E-01
  -7.448  0.203E-01  0.203E-01
  -7.438  0.204E-01  0.204E-01
  -7.428  0.207E-01  0.207E-01
  -7.418  0.212E-01  0.212E-01
  -7.408  0.219E-01  0.219E-01
  -7.398  0.226E-01  0.226E-01
  -7.388  0.232E-01  0.232E-01
  -7.378  0.236E-01  0.236E-01
  -7.368  0.237E-01  0.237E-01
  -7.358  0.235E-01  0.235E-01
  -7.348  0.229E-01  0.229E-01
  -7.338  0.219E-01  0.219E-01
  -7.328  0.207E-01  0.207E-01
  -7.318  0.192E-01  0.192E-01
  -7.308  0.177E-01  0.177E-01
  -7.298  0.162E-01  0.162E-01
  -7.288  0.150E-01  0.150E-01
  -7.278  0.141E-01  0.141E-01
  -7.268  0.136E-01  0.136E-01
  -7.258  0.137E-01  0.137E-01
  -7.248  0.142E-01  0.142E-01
  -7.238  0.151E-01  0.151E-01
  -7.228  0.163E-01  0.163E-01
  -7.218  0.176E-01  0.176E-01
  -7.208  0.190E-01  0.190E-01
  -7.198  0.204E-01  0.204E-01
  -7.188  0.217E-01  0.217E-01
  -7.178  0.228E-01  0.228E-01
  -7.168  0.237E-01  0.237E-01
  -7.158  0.244E-01  0.244E-01
  -7.148  0.248E-01  0.248E-01
  -7.138  0.249E-01  0.249E-01
  -7.128  0.245E-01  0.245E-01
  -7.118  0.236E-01  0.236E-01
  -7.108  0.223E-01  0.223E-01
  -7.098  0.207E-01  0.207E-01
  -7.088  0.188E-01  0.188E-01
  -7.078  0.168E-01  0.168E-01
  -7.068  0.149E-01  0.149E-01
  -7.058  0.133E-01  0.133E-01
  -7.048  0.121E-01  0.121E-01
  -7.038  0.114E-01  0.114E-01
  -7.028  0.111E-01  0.111E-01
  -7.018  0.113E-01  0.113E-01
  -7.008  0.117E-01  0.117E-01
  -6.998  0.125E-01  0.125E-01
  -6.988  0.134E-01  0.134E-01
  -6.978  0.144E-01  0.144E-01
  -6.968  0.155E-01  0.155E-01
  -6.958  0.166E-01  0.166E-01
  -6.948  0.176E-01  0.176E-01
  -6.938  0.185E-01  0.185E-01
  -6.928  0.191E-01  0.191E-01
  -6.918  0.195E-01  0.195E-01
  -6.908  0.196E-01  0.196E-01
  -6.898  0.193E-01  0.193E-01
  -6.888  0.186E-01  0.186E-01
  -6.878  0.177E-01  0.177E-01
  -6.868  0.165E-01  0.165E-01
  -6.858  0.152E-01  0.152E-01
  -6.848  0.141E-01  0.141E-01
  -6.838  0.132E-01  0.132E-01
  -6.828  0.127E-01  0.127E-01
  -6.818  0.125E-01  0.125E-01
  -6.808  0.127E-01  0.127E-01
  -6.798  0.131E-01  0.131E-01
  -6.788  0.137E-01  0.137E-01
  -6.778  0.144E-01  0.144E-01
  -6.768  0.150E-01  0.150E-01
  -6.758  0.154E-01  0.154E-01
  -6.748  0.156E-01  0.156E-01
  -6.738  0.157E-01  0.157E-01
  -6.728  0.155E-01  0.155E-01
  -6.718  0.152E-01  0.152E-01
  -6.708  0.147E-01  0.147E-01
  -6.698  0.141E-01  0.141E-01
  -6.688  0.135E-01  0.135E-01
  -6.678  0.128E-01  0.128E-01
  -6.668  0.121E-01  0.121E-01
  -6.658  0.115E-01  0.115E-01
  -6.648  0.110E-01  0.110E-01
  -6.638  0.106E-01  0.106E-01
  -6.628  0.103E-01  0.103E-01
  -6.618  0.102E-01  0.102E-01
  -6.608  0.102E-01  0.102E-01
  -6.598  0.103E-01  0.103E-01
  -6.588  0.107E-01  0.107E-01
  -6.578  0.112E-01  0.112E-01
  -6.568  0.119E-01  0.119E-01
  -6.558  0.127E-01  0.127E-01
  -6.548  0.137E-01  0.137E-01
  -6.538  0.147E-01  0.147E-01
  -6.528  0.157E-01  0.157E-01
  -6.518  0.164E-01  0.164E-01
  -6.508  0.168E-01  0.168E-01
  -6.498  0.168E-01  0.168E-01
  -6.488  0.163E-01  0.163E-01
  -6.478  0.154E-01  0.154E-01
  -6.468  0.141E-01  0.141E-01
  -6.458  0.127E-01  0.127E-01
  -6.448  0.112E-01  0.112E-01
  -6.438  0.982E-02  0.982E-02
  -6.428  0.870E-02  0.870E-02
  -6.418  0.791E-02  0.791E-02
  -6.408  0.749E-02  0.749E-02
  -6.398  0.742E-02  0.742E-02
  -6.388  0.766E-02  0.766E-02
  -6.378  0.812E-02  0.812E-02
  -6.368  0.870E-02  0.870E-02
  -6.358  0.933E-02  0.933E-02
  -6.348  0.993E-02  0.993E-02
  -6.338  0.104E-01  0.104E-01
  -6.328  0.108E-01  0.108E-01
  -6.318  0.111E-01  0.111E-01
  -6.308  0.113E-01  0.113E-01
  -6.298  0.114E-01  0.114E-01
  -6.288  0.114E-01  0.114E-01
  -6.278  0.113E-01  0.113E-01
  -6.268  0.112E-01  0.112E-01
  -6.258  0.111E-01  0.111E-01
  -6.248  0.109E-01  0.109E-01
  -6.238  0.107E-01  0.107E-01
  -6.228  0.105E-01  0.105E-01
  -6.218  0.105E-01  0.105E-01
  -6.208  0.105E-01  0.105E-01
  -6.198  0.107E-01  0.107E-01
  -6.188  0.109E-01  0.109E-01
  -6.178  0.112E-01  0.112E-01
  -6.168  0.114E-01  0.114E-01
  -6.158  0.116E-01  0.116E-01
  -6.148  0.115E-01  0.115E-01
  -6.138  0.113E-01  0.113E-01
  -6.128  0.110E-01  0.110E-01
  -6.118  0.104E-01  0.104E-01
  -6.108  0.978E-02  0.978E-02
  -6.098  0.907E-02  0.907E-02
  -6.088  0.834E-02  0.834E-02
  -6.078  0.764E-02  0.764E-02
  -6.068  0.701E-02  0.701E-02
  -6.058  0.647E-02  0.647E-02
  -6.048  0.607E-02  0.607E-02
  -6.038  0.582E-02  0.582E-02
  -6.028  0.574E-02  0.574E-02
  -6.018  0.584E-02  0.584E-02
  -6.008  0.610E-02  0.610E-02
  -5.998  0.653E-02  0.653E-02
  -5.988  0.709E-02  0.709E-02
  -5.978  0.778E-02  0.778E-02
  -5.968  0.856E-02  0.856E-02
  -5.958  0.942E-02  0.942E-02
  -5.948  0.103E-01  0.103E-01
  -5.938  0.113E-01  0.113E-01
  -5.928  0.121E-01  0.121E-01
  -5.918  0.128E-01  0.128E-01
  -5.908  0.131E-01  0.131E-01
  -5.898  0.131E-01  0.131E-01
  -5.888  0.127E-01  0.127E-01
  -5.878  0.118E-01  0.118E-01
  -5.868  0.106E-01  0.106E-01
  -5.858  0.910E-02  0.910E-02
  -5.848  0.752E-02  0.752E-02
  -5.838  0.603E-02  0.603E-02
  -5.828  0.479E-02  0.479E-02
  -5.818  0.391E-02  0.391E-02
  -5.808  0.347E-02  0.347E-02
  -5.798  0.344E-02  0.344E-02
  -5.788  0.378E-02  0.378E-02
  -5.778  0.438E-02  0.438E-02
  -5.768  0.513E-02  0.513E-02
  -5.758  0.593E-02  0.593E-02
  -5.748  0.670E-02  0.670E-02
  -5.738  0.736E-02  0.736E-02
  -5.728  0.790E-02  0.790E-02
  -5.718  0.829E-02  0.829E-02
  -5.708  0.853E-02  0.853E-02
  -5.698  0.865E-02  0.865E-02
  -5.688  0.864E-02  0.864E-02
  -5.678  0.854E-02  0.854E-02
  -5.668  0.835E-02  0.835E-02
  -5.658  0.811E-02  0.811E-02
  -5.648  0.784E-02  0.784E-02
  -5.638  0.758E-02  0.758E-02
  -5.628  0.736E-02  0.736E-02
  -5.618  0.721E-02  0.721E-02
  -5.608  0.714E-02  0.714E-02
  -5.598  0.715E-02  0.715E-02
  -5.588  0.722E-02  0.722E-02
  -5.578  0.730E-02  0.730E-02
  -5.568  0.734E-02  0.734E-02
  -5.558  0.732E-02  0.732E-02
  -5.548  0.718E-02  0.718E-02
  -5.538  0.691E-02  0.691E-02
  -5.528  0.652E-02  0.652E-02
  -5.518  0.603E-02  0.603E-02
  -5.508  0.550E-02  0.550E-02
  -5.498  0.497E-02  0.497E-02
  -5.488  0.451E-02  0.451E-02
  -5.478  0.418E-02  0.418E-02
  -5.468  0.401E-02  0.401E-02
  -5.458  0.402E-02  0.402E-02
  -5.448  0.418E-02  0.418E-02
  -5.438  0.449E-02  0.449E-02
  -5.428  0.488E-02  0.488E-02
  -5.418  0.531E-02  0.531E-02
  -5.408  0.573E-02  0.573E-02
  -5.398  0.613E-02  0.613E-02
  -5.388  0.648E-02  0.648E-02
  -5.378  0.677E-02  0.677E-02
  -5.368  0.702E-02  0.702E-02
  -5.358  0.721E-02  0.721E-02
  -5.348  0.734E-02  0.734E-02
  -5.338  0.737E-02  0.737E-02
  -5.328  0.728E-02  0.728E-02
  -5.318  0.705E-02  0.705E-02
  -5.308  0.665E-02  0.665E-02
  -5.298  0.612E-02  0.612E-02
  -5.288  0.549E-02  0.549E-02
  -5.278  0.485E-02  0.485E-02
  -5.268  0.428E-02  0.428E-02
  -5.258  0.386E-02  0.386E-02
  -5.248  0.364E-02  0.364E-02
  -5.238  0.364E-02  0.364E-02
  -5.228  0.383E-02  0.383E-02
  -5.218  0.416E-02  0.416E-02
  -5.208  0.455E-02  0.455E-02
  -5.198  0.490E-02  0.490E-02
  -5.188  0.514E-02  0.514E-02
  -5.178  0.522E-02  0.522E-02
  -5.168  0.513E-02  0.513E-02
  -5.158  0.487E-02  0.487E-02
  -5.148  0.451E-02  0.451E-02
  -5.138  0.411E-02  0.411E-02
  -5.128  0.374E-02  0.374E-02
  -5.118  0.347E-02  0.347E-02
  -5.108  0.334E-02  0.334E-02
  -5.098  0.338E-02  0.338E-02
  -5.088  0.358E-02  0.358E-02
  -5.078  0.393E-02  0.393E-02
  -5.068  0.438E-02  0.438E-02
  -5.058  0.488E-02  0.488E-02
  -5.048  0.540E-02  0.540E-02
  -5.038  0.586E-02  0.586E-02
  -5.028  0.623E-02  0.623E-02
  -5.018  0.643E-02  0.643E-02
  -5.008  0.643E-02  0.643E-02
  -4.998  0.620E-02  0.620E-02
  -4.988  0.574E-02  0.574E-02
  -4.978  0.507E-02  0.507E-02
  -4.968  0.426E-02  0.426E-02
  -4.958  0.340E-02  0.340E-02
  -4.948  0.258E-02  0.258E-02
  -4.938  0.190E-02  0.190E-02
  -4.928  0.142E-02  0.142E-02
  -4.918  0.120E-02  0.120E-02
  -4.908  0.123E-02  0.123E-02
  -4.898  0.149E-02  0.149E-02
  -4.888  0.191E-02  0.191E-02
  -4.878  0.244E-02  0.244E-02
  -4.868  0.301E-02  0.301E-02
  -4.858  0.357E-02  0.357E-02
  -4.848  0.408E-02  0.408E-02
  -4.838  0.449E-02  0.449E-02
  -4.828  0.482E-02  0.482E-02
  -4.818  0.503E-02  0.503E-02
  -4.808  0.512E-02  0.512E-02
  -4.798  0.510E-02  0.510E-02
  -4.788  0.495E-02  0.495E-02
  -4.778  0.468E-02  0.468E-02
  -4.768  0.431E-02  0.431E-02
  -4.758  0.386E-02  0.386E-02
  -4.748  0.338E-02  0.338E-02
  -4.738  0.291E-02  0.291E-02
  -4.728  0.250E-02  0.250E-02
  -4.718  0.218E-02  0.218E-02
  -4.708  0.198E-02  0.198E-02
  -4.698  0.189E-02  0.189E-02
  -4.688  0.190E-02  0.190E-02
  -4.678  0.196E-02  0.196E-02
  -4.668  0.205E-02  0.205E-02
  -4.658  0.215E-02  0.215E-02
  -4.648  0.224E-02  0.224E-02
  -4.638  0.232E-02  0.232E-02
  -4.628  0.240E-02  0.240E-02
  -4.618  0.249E-02  0.249E-02
  -4.608  0.261E-02  0.261E-02
  -4.598  0.274E-02  0.274E-02
  -4.588  0.289E-02  0.289E-02
  -4.578  0.304E-02  0.304E-02
  -4.568  0.317E-02  0.317E-02
  -4.558  0.327E-02  0.327E-02
  -4.548  0.331E-02  0.331E-02
  -4.538  0.328E-02  0.328E-02
  -4.528  0.319E-02  0.319E-02
  -4.518  0.302E-02  0.302E-02
  -4.508  0.280E-02  0.280E-02
  -4.498  0.252E-02  0.252E-02
  -4.488  0.223E-02  0.223E-02
  -4.478  0.195E-02  0.195E-02
  -4.468  0.171E-02  0.171E-02
  -4.458  0.154E-02  0.154E-02
  -4.448  0.145E-02  0.145E-02
  -4.438  0.144E-02  0.144E-02
  -4.428  0.150E-02  0.150E-02
  -4.418  0.159E-02  0.159E-02
  -4.408  0.169E-02  0.169E-02
  -4.398  0.177E-02  0.177E-02
  -4.388  0.183E-02  0.183E-02
  -4.378  0.185E-02  0.185E-02
  -4.368  0.186E-02  0.186E-02
  -4.358  0.187E-02  0.187E-02
  -4.348  0.189E-02  0.189E-02
  -4.338  0.195E-02  0.195E-02
  -4.328  0.203E-02  0.203E-02
  -4.318  0.213E-02  0.213E-02
  -4.308  0.221E-02  0.221E-02
  -4.298  0.226E-02  0.226E-02
  -4.288  0.225E-02  0.225E-02
  -4.278  0.216E-02  0.216E-02
  -4.268  0.200E-02  0.200E-02
  -4.258  0.178E-02  0.178E-02
  -4.248  0.152E-02  0.152E-02
  -4.238  0.126E-02  0.126E-02
  -4.228  0.102E-02  0.102E-02
  -4.218  0.846E-03  0.846E-03
  -4.208  0.745E-03  0.745E-03
  -4.198  0.729E-03  0.729E-03
  -4.188  0.795E-03  0.795E-03
  -4.178  0.928E-03  0.928E-03
  -4.168  0.110E-02  0.110E-02
  -4.158  0.129E-02  0.129E-02
  -4.148  0.146E-02  0.146E-02
  -4.138  0.160E-02  0.160E-02
  -4.128  0.167E-02  0.167E-02
  -4.118  0.168E-02  0.168E-02
  -4.108  0.163E-02  0.163E-02
  -4.098  0.152E-02  0.152E-02
  -4.088  0.137E-02  0.137E-02
  -4.078  0.121E-02  0.121E-02
  -4.068  0.104E-02  0.104E-02
  -4.058  0.883E-03  0.883E-03
  -4.048  0.756E-03  0.756E-03
  -4.038  0.665E-03  0.665E-03
  -4.028  0.612E-03  0.612E-03
  -4.018  0.597E-03  0.597E-03
  -4.008  0.616E-03  0.616E-03
  -3.998  0.661E-03  0.661E-03
  -3.988  0.723E-03  0.723E-03
  -3.978  0.793E-03  0.793E-03
  -3.968  0.859E-03  0.859E-03
  -3.958  0.910E-03  0.910E-03
  -3.948  0.938E-03  0.938E-03
  -3.938  0.936E-03  0.936E-03
  -3.928  0.901E-03  0.901E-03
  -3.918  0.836E-03  0.836E-03
  -3.908  0.748E-03  0.748E-03
  -3.898  0.651E-03  0.651E-03
  -3.888  0.555E-03  0.555E-03
  -3.878  0.474E-03  0.474E-03
  -3.868  0.415E-03  0.415E-03
  -3.858  0.381E-03  0.381E-03
  -3.848  0.371E-03  0.371E-03
  -3.838  0.379E-03  0.379E-03
  -3.828  0.398E-03  0.398E-03
  -3.818  0.418E-03  0.418E-03
  -3.808  0.432E-03  0.432E-03
  -3.798  0.434E-03  0.434E-03
  -3.788  0.423E-03  0.423E-03
  -3.778  0.398E-03  0.398E-03
  -3.768  0.362E-03  0.362E-03
  -3.758  0.321E-03  0.321E-03
  -3.748  0.279E-03  0.279E-03
  -3.738  0.241E-03  0.241E-03
  -3.728  0.211E-03  0.211E-03
  -3.718  0.189E-03  0.189E-03
  -3.708  0.175E-03  0.175E-03
  -3.698  0.165E-03  0.165E-03
  -3.688  0.157E-03  0.157E-03
  -3.678  0.147E-03  0.147E-03
  -3.668  0.134E-03  0.134E-03
  -3.658  0.118E-03  0.118E-03
  -3.648  0.996E-04  0.996E-04
  -3.638  0.799E-04  0.799E-04
  -3.628  0.611E-04  0.611E-04
  -3.618  0.445E-04  0.445E-04
  -3.608  0.309E-04  0.309E-04
  -3.598  0.207E-04  0.207E-04
  -3.588  0.136E-04  0.136E-04
  -3.578  0.902E-05  0.902E-05
  -3.568  0.650E-05  0.650E-05
  -3.558  0.548E-05  0.548E-05
  -3.548  0.550E-05  0.550E-05
  -3.538  0.622E-05  0.622E-05
  -3.528  0.738E-05  0.738E-05
  -3.518  0.879E-05  0.879E-05
  -3.508  0.103E-04  0.103E-04
  -3.498  0.119E-04  0.119E-04
  -3.488  0.135E-04  0.135E-04
  -3.478  0.151E-04  0.151E-04
  -3.468  0.167E-04  0.167E-04
  -3.458  0.183E-04  0.183E-04
  -3.448  0.200E-04  0.200E-04
  -3.438  0.216E-04  0.216E-04
  -3.428  0.231E-04  0.231E-04
  -3.418  0.245E-04  0.245E-04
  -3.408  0.255E-04  0.255E-04
  -3.398  0.261E-04  0.261E-04
  -3.388  0.263E-04  0.263E-04
  -3.378  0.260E-04  0.260E-04
  -3.368  0.252E-04  0.252E-04
  -3.358  0.239E-04  0.239E-04
  -3.348  0.223E-04  0.223E-04
  -3.338  0.205E-04  0.205E-04
  -3.328  0.186E-04  0.186E-04
  -3.318  0.168E-04  0.168E-04
  -3.308  0.152E-04  0.152E-04
  -3.298  0.139E-04  0.139E-04
  -3.288  0.129E-04  0.129E-04
  -3.278  0.121E-04  0.121E-04
  -3.268  0.116E-04  0.116E-04
  -3.258  0.112E-04  0.112E-04
  -3.248  0.110E-04  0.110E-04
  -3.238  0.110E-04  0.110E-04
  -3.228  0.110E-04  0.110E-04
  -3.218  0.113E-04  0.113E-04
  -3.208  0.117E-04  0.117E-04
  -3.198  0.123E-04  0.123E-04
  -3.188  0.132E-04  0.132E-04
  -3.178  0.142E-04  0.142E-04
  -3.168  0.152E-04  0.152E-04
  -3.158  0.162E-04  0.162E-04
  -3.148  0.170E-04  0.170E-04
  -3.138  0.176E-04  0.176E-04
  -3.128  0.179E-04  0.179E-04
  -3.118  0.179E-04  0.179E-04
  -3.108  0.177E-04  0.177E-04
  -3.098  0.173E-04  0.173E-04
  -3.088  0.167E-04  0.167E-04
  -3.078  0.160E-04  0.160E-04
  -3.068  0.153E-04  0.153E-04
  -3.058  0.145E-04  0.145E-04
  -3.048  0.135E-04  0.135E-04
  -3.038  0.126E-04  0.126E-04
  -3.028  0.115E-04  0.115E-04
  -3.018  0.105E-04  0.105E-04
  -3.008  0.944E-05  0.944E-05
  -2.998  0.847E-05  0.847E-05
  -2.988  0.760E-05  0.760E-05
  -2.978  0.689E-05  0.689E-05
  -2.968  0.637E-05  0.637E-05
  -2.958  0.608E-05  0.608E-05
  -2.948  0.606E-05  0.606E-05
  -2.938  0.632E-05  0.632E-05
  -2.928  0.684E-05  0.684E-05
  -2.918  0.760E-05  0.760E-05
  -2.908  0.851E-05  0.851E-05
  -2.898  0.947E-05  0.947E-05
  -2.888  0.104E-04  0.104E-04
  -2.878  0.111E-04  0.111E-04
  -2.868  0.117E-04  0.117E-04
  -2.858  0.120E-04  0.120E-04
  -2.848  0.121E-04  0.121E-04
  -2.838  0.120E-04  0.120E-04
  -2.828  0.118E-04  0.118E-04
  -2.818  0.115E-04  0.115E-04
  -2.808  0.112E-04  0.112E-04
  -2.798  0.109E-04  0.109E-04
  -2.788  0.104E-04  0.104E-04
  -2.778  0.981E-05  0.981E-05
  -2.768  0.895E-05  0.895E-05
  -2.758  0.786E-05  0.786E-05
  -2.748  0.656E-05  0.656E-05
  -2.738  0.517E-05  0.517E-05
  -2.728  0.383E-05  0.383E-05
  -2.718  0.266E-05  0.266E-05
  -2.708  0.183E-05  0.183E-05
  -2.698  0.141E-05  0.141E-05
  -2.688  0.147E-05  0.147E-05
  -2.678  0.200E-05  0.200E-05
  -2.668  0.295E-05  0.295E-05
  -2.658  0.420E-05  0.420E-05
  -2.648  0.562E-05  0.562E-05
  -2.638  0.703E-05  0.703E-05
  -2.628  0.824E-05  0.824E-05
  -2.618  0.910E-05  0.910E-05
  -2.608  0.948E-05  0.948E-05
  -2.598  0.932E-05  0.932E-05
  -2.588  0.866E-05  0.866E-05
  -2.578  0.761E-05  0.761E-05
  -2.568  0.634E-05  0.634E-05
  -2.558  0.504E-05  0.504E-05
  -2.548  0.388E-05  0.388E-05
  -2.538  0.300E-05  0.300E-05
  -2.528  0.245E-05  0.245E-05
  -2.518  0.222E-05  0.222E-05
  -2.508  0.222E-05  0.222E-05
  -2.498  0.238E-05  0.238E-05
  -2.488  0.257E-05  0.257E-05
  -2.478  0.273E-05  0.273E-05
  -2.468  0.281E-05  0.281E-05
  -2.458  0.282E-05  0.282E-05
  -2.448  0.279E-05  0.279E-05
  -2.438  0.277E-05  0.277E-05
  -2.428  0.283E-05  0.283E-05
  -2.418  0.300E-05  0.300E-05
  -2.408  0.328E-05  0.328E-05
  -2.398  0.367E-05  0.367E-05
  -2.388  0.410E-05  0.410E-05
  -2.378  0.451E-05  0.451E-05
  -2.368  0.481E-05  0.481E-05
  -2.358  0.493E-05  0.493E-05
  -2.348  0.483E-05  0.483E-05
  -2.338  0.450E-05  0.450E-05
  -2.328  0.397E-05  0.397E-05
  -2.318  0.331E-05  0.331E-05
  -2.308  0.261E-05  0.261E-05
  -2.298  0.194E-05  0.194E-05
  -2.288  0.139E-05  0.139E-05
  -2.278  0.999E-06  0.999E-06
  -2.268  0.792E-06  0.792E-06
  -2.258  0.758E-06  0.758E-06
  -2.248  0.866E-06  0.866E-06
  -2.238  0.107E-05  0.107E-05
  -2.228  0.133E-05  0.133E-05
  -2.218  0.161E-05  0.161E-05
  -2.208  0.186E-05  0.186E-05
  -2.198  0.207E-05  0.207E-05
  -2.188  0.223E-05  0.223E-05
  -2.178  0.234E-05  0.234E-05
  -2.168  0.240E-05  0.240E-05
  -2.158  0.243E-05  0.243E-05
  -2.148  0.245E-05  0.245E-05
  -2.138  0.247E-05  0.247E-05
  -2.128  0.249E-05  0.249E-05
  -2.118  0.251E-05  0.251E-05
  -2.108  0.252E-05  0.252E-05
  -2.098  0.249E-05  0.249E-05
  -2.088  0.241E-05  0.241E-05
  -2.078  0.227E-05  0.227E-05
  -2.068  0.205E-05  0.205E-05
  -2.058  0.177E-05  0.177E-05
  -2.048  0.145E-05  0.145E-05
  -2.038  0.112E-05  0.112E-05
  -2.028  0.829E-06  0.829E-06
  -2.018  0.591E-06  0.591E-06
  -2.008  0.426E-06  0.426E-06
  -1.998  0.342E-06  0.342E-06
  -1.988  0.333E-06  0.333E-06
  -1.978  0.387E-06  0.387E-06
  -1.968  0.486E-06  0.486E-06
  -1.958  0.615E-06  0.615E-06
  -1.948  0.759E-06  0.759E-06
  -1.938  0.906E-06  0.906E-06
  -1.928  0.105E-05  0.105E-05
  -1.918  0.118E-05  0.118E-05
  -1.908  0.129E-05  0.129E-05
  -1.898  0.138E-05  0.138E-05
  -1.888  0.145E-05  0.145E-05
  -1.878  0.150E-05  0.150E-05
  -1.868  0.153E-05  0.153E-05
  -1.858  0.153E-05  0.153E-05
  -1.848  0.152E-05  0.152E-05
  -1.838  0.147E-05  0.147E-05
  -1.828  0.139E-05  0.139E-05
  -1.818  0.128E-05  0.128E-05
  -1.808  0.114E-05  0.114E-05
  -1.798  0.978E-06  0.978E-06
  -1.788  0.798E-06  0.798E-06
  -1.778  0.617E-06  0.617E-06
  -1.768  0.451E-06  0.451E-06
  -1.758  0.312E-06  0.312E-06
  -1.748  0.211E-06  0.211E-06
  -1.738  0.151E-06  0.151E-06
  -1.728  0.130E-06  0.130E-06
  -1.718  0.141E-06  0.141E-06
  -1.708  0.175E-06  0.175E-06
  -1.698  0.223E-06  0.223E-06
  -1.688  0.279E-06  0.279E-06
  -1.678  0.339E-06  0.339E-06
  -1.668  0.403E-06  0.403E-06
  -1.658  0.470E-06  0.470E-06
  -1.648  0.539E-06  0.539E-06
  -1.638  0.609E-06  0.609E-06
  -1.628  0.677E-06  0.677E-06
  -1.618  0.737E-06  0.737E-06
  -1.608  0.783E-06  0.783E-06
  -1.598  0.811E-06  0.811E-06
  -1.588  0.816E-06  0.816E-06
  -1.578  0.797E-06  0.797E-06
  -1.568  0.752E-06  0.752E-06
  -1.558  0.686E-06  0.686E-06
  -1.548  0.601E-06  0.601E-06
  -1.538  0.504E-06  0.504E-06
  -1.528  0.404E-06  0.404E-06
  -1.518  0.307E-06  0.307E-06
  -1.508  0.221E-06  0.221E-06
  -1.498  0.151E-06  0.151E-06
  -1.488  0.984E-07  0.984E-07
  -1.478  0.648E-07  0.648E-07
  -1.468  0.483E-07  0.483E-07
  -1.458  0.460E-07  0.460E-07
  -1.448  0.550E-07  0.550E-07
  -1.438  0.724E-07  0.724E-07
  -1.428  0.957E-07  0.957E-07
  -1.418  0.123E-06  0.123E-06
  -1.408  0.153E-06  0.153E-06
  -1.398  0.184E-06  0.184E-06
  -1.388  0.216E-06  0.216E-06
  -1.378  0.246E-06  0.246E-06
  -1.368  0.275E-06  0.275E-06
  -1.358  0.300E-06  0.300E-06
  -1.348  0.322E-06  0.322E-06
  -1.338  0.337E-06  0.337E-06
  -1.328  0.345E-06  0.345E-06
  -1.318  0.343E-06  0.343E-06
  -1.308  0.330E-06  0.330E-06
  -1.298  0.306E-06  0.306E-06
  -1.288  0.270E-06  0.270E-06
  -1.278  0.226E-06  0.226E-06
  -1.268  0.177E-06  0.177E-06
  -1.258  0.128E-06  0.128E-06
  -1.248  0.829E-07  0.829E-07
  -1.238  0.453E-07  0.453E-07
  -1.228  0.177E-07  0.177E-07
  -1.218  0.906E-09  0.906E-09
  -1.208 -0.537E-08 -0.537E-08
  -1.198 -0.264E-08 -0.264E-08
  -1.188  0.700E-08  0.700E-08
  -1.178  0.212E-07  0.212E-07
  -1.168  0.377E-07  0.377E-07
  -1.158  0.546E-07  0.546E-07
  -1.148  0.704E-07  0.704E-07
  -1.138  0.843E-07  0.843E-07
  -1.128  0.958E-07  0.958E-07
  -1.118  0.105E-06  0.105E-06
  -1.108  0.112E-06  0.112E-06
  -1.098  0.117E-06  0.117E-06
  -1.088  0.120E-06  0.120E-06
  -1.078  0.120E-06  0.120E-06
  -1.068  0.117E-06  0.117E-06
  -1.058  0.110E-06  0.110E-06
  -1.048  0.979E-07  0.979E-07
  -1.038  0.824E-07  0.824E-07
  -1.028  0.643E-07  0.643E-07
  -1.018  0.454E-07  0.454E-07
  -1.008  0.277E-07  0.277E-07
  -0.998  0.130E-07  0.130E-07
  -0.988  0.244E-08  0.244E-08
  -0.978 -0.343E-08 -0.343E-08
  -0.968 -0.483E-08 -0.483E-08
  -0.958 -0.248E-08 -0.248E-08
  -0.948  0.252E-08  0.252E-08
  -0.938  0.901E-08  0.901E-08
  -0.928  0.159E-07  0.159E-07
  -0.918  0.222E-07  0.222E-07
  -0.908  0.274E-07  0.274E-07
  -0.898  0.310E-07  0.310E-07
  -0.888  0.330E-07  0.330E-07
  -0.878  0.336E-07  0.336E-07
  -0.868  0.329E-07  0.329E-07
  -0.858  0.312E-07  0.312E-07
  -0.848  0.289E-07  0.289E-07
  -0.838  0.261E-07  0.261E-07
  -0.828  0.230E-07  0.230E-07
  -0.818  0.196E-07  0.196E-07
  -0.808  0.160E-07  0.160E-07
  -0.798  0.123E-07  0.123E-07
  -0.788  0.870E-08  0.870E-08
  -0.778  0.547E-08  0.547E-08
  -0.768  0.284E-08  0.284E-08
  -0.758  0.102E-08  0.102E-08
  -0.748  0.926E-10  0.926E-10
  -0.738  0.379E-11  0.379E-11
  -0.728  0.598E-09  0.598E-09
  -0.718  0.163E-08  0.163E-08
  -0.708  0.284E-08  0.284E-08
  -0.698  0.394E-08  0.394E-08
  -0.688  0.474E-08  0.474E-08
  -0.678  0.511E-08  0.511E-08
  -0.668  0.501E-08  0.501E-08
  -0.658  0.448E-08  0.448E-08
  -0.648  0.364E-08  0.364E-08
  -0.638  0.264E-08  0.264E-08
  -0.628  0.163E-08  0.163E-08
  -0.618  0.735E-09  0.735E-09
  -0.608  0.399E-10  0.399E-10
  -0.598 -0.424E-09 -0.424E-09
  -0.588 -0.667E-09 -0.667E-09
  -0.578 -0.730E-09 -0.730E-09
  -0.568 -0.669E-09 -0.669E-09
  -0.558 -0.535E-09 -0.535E-09
  -0.548 -0.365E-09 -0.365E-09
  -0.538 -0.178E-09 -0.178E-09
  -0.528  0.275E-10  0.275E-10
  -0.518  0.273E-09  0.273E-09
  -0.508  0.594E-09  0.594E-09
  -0.498  0.103E-08  0.103E-08
  -0.488  0.164E-08  0.164E-08
  -0.478  0.244E-08  0.244E-08
  -0.468  0.346E-08  0.346E-08
  -0.458  0.465E-08  0.465E-08
  -0.448  0.596E-08  0.596E-08
  -0.438  0.726E-08  0.726E-08
  -0.428  0.839E-08  0.839E-08
  -0.418  0.920E-08  0.920E-08
  -0.408  0.953E-08  0.953E-08
  -0.398  0.931E-08  0.931E-08
  -0.388  0.852E-08  0.852E-08
  -0.378  0.727E-08  0.727E-08
  -0.368  0.570E-08  0.570E-08
  -0.358  0.404E-08  0.404E-08
  -0.348  0.249E-08  0.249E-08
  -0.338  0.126E-08  0.126E-08
  -0.328  0.492E-09  0.492E-09
  -0.318  0.282E-09  0.282E-09
  -0.308  0.696E-09  0.696E-09
  -0.298  0.178E-08  0.178E-08
  -0.288  0.358E-08  0.358E-08
  -0.278  0.615E-08  0.615E-08
  -0.268  0.951E-08  0.951E-08
  -0.258  0.137E-07  0.137E-07
  -0.248  0.185E-07  0.185E-07
  -0.238  0.239E-07  0.239E-07
  -0.228  0.296E-07  0.296E-07
  -0.218  0.351E-07  0.351E-07
  -0.208  0.400E-07  0.400E-07
  -0.198  0.439E-07  0.439E-07
  -0.188  0.464E-07  0.464E-07
  -0.178  0.472E-07  0.472E-07
  -0.168  0.461E-07  0.461E-07
  -0.158  0.431E-07  0.431E-07
  -0.148  0.385E-07  0.385E-07
  -0.138  0.327E-07  0.327E-07
  -0.128  0.263E-07  0.263E-07
  -0.118  0.201E-07  0.201E-07
  -0.108  0.149E-07  0.149E-07
  -0.098  0.115E-07  0.115E-07
  -0.088  0.106E-07  0.106E-07
  -0.078  0.126E-07  0.126E-07
  -0.068  0.180E-07  0.180E-07
  -0.058  0.267E-07  0.267E-07
  -0.048  0.386E-07  0.386E-07
  -0.038  0.530E-07  0.530E-07
  -0.028  0.690E-07  0.690E-07
  -0.018  0.853E-07  0.853E-07
  -0.008  0.100E-06  0.100E-06
   0.002  0.112E-06  0.112E-06
   0.012  0.120E-06  0.120E-06
   0.022  0.123E-06  0.123E-06
   0.032  0.122E-06  0.122E-06
   0.042  0.116E-06  0.116E-06
   0.052  0.109E-06  0.109E-06
   0.062  0.999E-07  0.999E-07
   0.072  0.917E-07  0.917E-07
   0.082  0.850E-07  0.850E-07
   0.092  0.803E-07  0.803E-07
   0.102  0.778E-07  0.778E-07
   0.112  0.776E-07  0.776E-07
   0.122  0.803E-07  0.803E-07
   0.132  0.866E-07  0.866E-07
   0.142  0.977E-07  0.977E-07
   0.152  0.115E-06  0.115E-06
   0.162  0.138E-06  0.138E-06
   0.172  0.166E-06  0.166E-06
   0.182  0.198E-06  0.198E-06
   0.192  0.230E-06  0.230E-06
   0.202  0.258E-06  0.258E-06
   0.212  0.278E-06  0.278E-06
   0.222  0.286E-06  0.286E-06
   0.232  0.282E-06  0.282E-06
   0.242  0.265E-06  0.265E-06
   0.252  0.239E-06  0.239E-06
   0.262  0.209E-06  0.209E-06
   0.272  0.180E-06  0.180E-06
   0.282  0.160E-06  0.160E-06
   0.292  0.153E-06  0.153E-06
   0.302  0.162E-06  0.162E-06
   0.312  0.188E-06  0.188E-06
   0.322  0.229E-06  0.229E-06
   0.332  0.283E-06  0.283E-06
   0.342  0.342E-06  0.342E-06
   0.352  0.402E-06  0.402E-06
   0.362  0.457E-06  0.457E-06
   0.372  0.501E-06  0.501E-06
   0.382  0.531E-06  0.531E-06
   0.392  0.547E-06  0.547E-06
   0.402  0.549E-06  0.549E-06
   0.412  0.538E-06  0.538E-06
   0.422  0.519E-06  0.519E-06
   0.432  0.497E-06  0.497E-06
   0.442  0.475E-06  0.475E-06
   0.452  0.460E-06  0.460E-06
   0.462  0.456E-06  0.456E-06
   0.472  0.467E-06  0.467E-06
   0.482  0.495E-06  0.495E-06
   0.492  0.539E-06  0.539E-06
   0.502  0.597E-06  0.597E-06
   0.512  0.661E-06  0.661E-06
   0.522  0.726E-06  0.726E-06
   0.532  0.782E-06  0.782E-06
   0.542  0.824E-06  0.824E-06
   0.552  0.849E-06  0.849E-06
   0.562  0.863E-06  0.863E-06
   0.572  0.870E-06  0.870E-06
   0.582  0.883E-06  0.883E-06
   0.592  0.912E-06  0.912E-06
   0.602  0.964E-06  0.964E-06
   0.612  0.104E-05  0.104E-05
   0.622  0.115E-05  0.115E-05
   0.632  0.127E-05  0.127E-05
   0.642  0.139E-05  0.139E-05
   0.652  0.151E-05  0.151E-05
   0.662  0.161E-05  0.161E-05
   0.672  0.169E-05  0.169E-05
   0.682  0.175E-05  0.175E-05
   0.692  0.179E-05  0.179E-05
   0.702  0.181E-05  0.181E-05
   0.712  0.182E-05  0.182E-05
   0.722  0.182E-05  0.182E-05
   0.732  0.183E-05  0.183E-05
   0.742  0.185E-05  0.185E-05
   0.752  0.190E-05  0.190E-05
   0.762  0.199E-05  0.199E-05
   0.772  0.214E-05  0.214E-05
   0.782  0.237E-05  0.237E-05
   0.792  0.268E-05  0.268E-05
   0.802  0.308E-05  0.308E-05
   0.812  0.356E-05  0.356E-05
   0.822  0.410E-05  0.410E-05
   0.832  0.470E-05  0.470E-05
   0.842  0.535E-05  0.535E-05
   0.852  0.606E-05  0.606E-05
   0.862  0.687E-05  0.687E-05
   0.872  0.782E-05  0.782E-05
   0.882  0.897E-05  0.897E-05
   0.892  0.104E-04  0.104E-04
   0.902  0.120E-04  0.120E-04
   0.912  0.139E-04  0.139E-04
   0.922  0.160E-04  0.160E-04
   0.932  0.181E-04  0.181E-04
   0.942  0.200E-04  0.200E-04
   0.952  0.217E-04  0.217E-04
   0.962  0.229E-04  0.229E-04
   0.972  0.235E-04  0.235E-04
   0.982  0.234E-04  0.234E-04
   0.992  0.227E-04  0.227E-04
   1.002  0.216E-04  0.216E-04
   1.012  0.201E-04  0.201E-04
   1.022  0.185E-04  0.185E-04
   1.032  0.169E-04  0.169E-04
   1.042  0.155E-04  0.155E-04
   1.052  0.145E-04  0.145E-04
   1.062  0.137E-04  0.137E-04
   1.072  0.132E-04  0.132E-04
   1.082  0.129E-04  0.129E-04
   1.092  0.128E-04  0.128E-04
   1.102  0.127E-04  0.127E-04
   1.112  0.125E-04  0.125E-04
   1.122  0.123E-04  0.123E-04
   1.132  0.119E-04  0.119E-04
   1.142  0.115E-04  0.115E-04
   1.152  0.112E-04  0.112E-04
   1.162  0.110E-04  0.110E-04
   1.172  0.109E-04  0.109E-04
   1.182  0.111E-04  0.111E-04
   1.192  0.115E-04  0.115E-04
   1.202  0.120E-04  0.120E-04
   1.212  0.126E-04  0.126E-04
   1.222  0.131E-04  0.131E-04
   1.232  0.136E-04  0.136E-04
   1.242  0.141E-04  0.141E-04
   1.252  0.145E-04  0.145E-04
   1.262  0.151E-04  0.151E-04
   1.272  0.159E-04  0.159E-04
   1.282  0.170E-04  0.170E-04
   1.292  0.183E-04  0.183E-04
   1.302  0.197E-04  0.197E-04
   1.312  0.211E-04  0.211E-04
   1.322  0.222E-04  0.222E-04
   1.332  0.230E-04  0.230E-04
   1.342  0.232E-04  0.232E-04
   1.352  0.229E-04  0.229E-04
   1.362  0.222E-04  0.222E-04
   1.372  0.212E-04  0.212E-04
   1.382  0.200E-04  0.200E-04
   1.392  0.189E-04  0.189E-04
   1.402  0.179E-04  0.179E-04
   1.412  0.172E-04  0.172E-04
   1.422  0.167E-04  0.167E-04
   1.432  0.164E-04  0.164E-04
   1.442  0.161E-04  0.161E-04
   1.452  0.158E-04  0.158E-04
   1.462  0.153E-04  0.153E-04
   1.472  0.146E-04  0.146E-04
   1.482  0.137E-04  0.137E-04
   1.492  0.128E-04  0.128E-04
   1.502  0.120E-04  0.120E-04
   1.512  0.113E-04  0.113E-04
   1.522  0.109E-04  0.109E-04
   1.532  0.108E-04  0.108E-04
   1.542  0.111E-04  0.111E-04
   1.552  0.116E-04  0.116E-04
   1.562  0.122E-04  0.122E-04
   1.572  0.127E-04  0.127E-04
   1.582  0.131E-04  0.131E-04
   1.592  0.132E-04  0.132E-04
   1.602  0.130E-04  0.130E-04
   1.612  0.125E-04  0.125E-04
   1.622  0.118E-04  0.118E-04
   1.632  0.111E-04  0.111E-04
   1.642  0.104E-04  0.104E-04
   1.652  0.990E-05  0.990E-05
   1.662  0.954E-05  0.954E-05
   1.672  0.938E-05  0.938E-05
   1.682  0.938E-05  0.938E-05
   1.692  0.952E-05  0.952E-05
   1.702  0.976E-05  0.976E-05
   1.712  0.100E-04  0.100E-04
   1.722  0.103E-04  0.103E-04
   1.732  0.106E-04  0.106E-04
   1.742  0.108E-04  0.108E-04
   1.752  0.110E-04  0.110E-04
   1.762  0.110E-04  0.110E-04
   1.772  0.109E-04  0.109E-04
   1.782  0.107E-04  0.107E-04
   1.792  0.104E-04  0.104E-04
   1.802  0.997E-05  0.997E-05
   1.812  0.948E-05  0.948E-05
   1.822  0.897E-05  0.897E-05
   1.832  0.847E-05  0.847E-05
   1.842  0.801E-05  0.801E-05
   1.852  0.764E-05  0.764E-05
   1.862  0.739E-05  0.739E-05
   1.872  0.732E-05  0.732E-05
   1.882  0.746E-05  0.746E-05
   1.892  0.784E-05  0.784E-05
   1.902  0.844E-05  0.844E-05
   1.912  0.920E-05  0.920E-05
   1.922  0.100E-04  0.100E-04
   1.932  0.107E-04  0.107E-04
   1.942  0.113E-04  0.113E-04
   1.952  0.115E-04  0.115E-04
   1.962  0.113E-04  0.113E-04
   1.972  0.107E-04  0.107E-04
   1.982  0.974E-05  0.974E-05
   1.992  0.860E-05  0.860E-05
   2.002  0.741E-05  0.741E-05
   2.012  0.634E-05  0.634E-05
   2.022  0.553E-05  0.553E-05
   2.032  0.510E-05  0.510E-05
   2.042  0.510E-05  0.510E-05
   2.052  0.553E-05  0.553E-05
   2.062  0.631E-05  0.631E-05
   2.072  0.735E-05  0.735E-05
   2.082  0.851E-05  0.851E-05
   2.092  0.964E-05  0.964E-05
   2.102  0.106E-04  0.106E-04
   2.112  0.113E-04  0.113E-04
   2.122  0.116E-04  0.116E-04
   2.132  0.114E-04  0.114E-04
   2.142  0.109E-04  0.109E-04
   2.152  0.992E-05  0.992E-05
   2.162  0.873E-05  0.873E-05
   2.172  0.743E-05  0.743E-05
   2.182  0.618E-05  0.618E-05
   2.192  0.512E-05  0.512E-05
   2.202  0.437E-05  0.437E-05
   2.212  0.400E-05  0.400E-05
   2.222  0.404E-05  0.404E-05
   2.232  0.448E-05  0.448E-05
   2.242  0.528E-05  0.528E-05
   2.252  0.636E-05  0.636E-05
   2.262  0.760E-05  0.760E-05
   2.272  0.890E-05  0.890E-05
   2.282  0.101E-04  0.101E-04
   2.292  0.111E-04  0.111E-04
   2.302  0.116E-04  0.116E-04
   2.312  0.118E-04  0.118E-04
   2.322  0.114E-04  0.114E-04
   2.332  0.106E-04  0.106E-04
   2.342  0.933E-05  0.933E-05
   2.352  0.790E-05  0.790E-05
   2.362  0.644E-05  0.644E-05
   2.372  0.515E-05  0.515E-05
   2.382  0.417E-05  0.417E-05
   2.392  0.360E-05  0.360E-05
   2.402  0.349E-05  0.349E-05
   2.412  0.380E-05  0.380E-05
   2.422  0.448E-05  0.448E-05
   2.432  0.549E-05  0.549E-05
   2.442  0.677E-05  0.677E-05
   2.452  0.834E-05  0.834E-05
   2.462  0.103E-04  0.103E-04
   2.472  0.128E-04  0.128E-04
   2.482  0.163E-04  0.163E-04
   2.492  0.212E-04  0.212E-04
   2.502  0.282E-04  0.282E-04
   2.512  0.382E-04  0.382E-04
   2.522  0.520E-04  0.520E-04
   2.532  0.706E-04  0.706E-04
   2.542  0.944E-04  0.944E-04
   2.552  0.124E-03  0.124E-03
   2.562  0.157E-03  0.157E-03
   2.572  0.195E-03  0.195E-03
   2.582  0.233E-03  0.233E-03
   2.592  0.270E-03  0.270E-03
   2.602  0.302E-03  0.302E-03
   2.612  0.328E-03  0.328E-03
   2.622  0.346E-03  0.346E-03
   2.632  0.356E-03  0.356E-03
   2.642  0.357E-03  0.357E-03
   2.652  0.351E-03  0.351E-03
   2.662  0.339E-03  0.339E-03
   2.672  0.324E-03  0.324E-03
   2.682  0.307E-03  0.307E-03
   2.692  0.290E-03  0.290E-03
   2.702  0.273E-03  0.273E-03
   2.712  0.257E-03  0.257E-03
   2.722  0.243E-03  0.243E-03
   2.732  0.230E-03  0.230E-03
   2.742  0.218E-03  0.218E-03
   2.752  0.207E-03  0.207E-03
   2.762  0.197E-03  0.197E-03
   2.772  0.188E-03  0.188E-03
   2.782  0.179E-03  0.179E-03
   2.792  0.171E-03  0.171E-03
   2.802  0.164E-03  0.164E-03
   2.812  0.158E-03  0.158E-03
   2.822  0.152E-03  0.152E-03
   2.832  0.146E-03  0.146E-03
   2.842  0.141E-03  0.141E-03
   2.852  0.135E-03  0.135E-03
   2.862  0.130E-03  0.130E-03
   2.872  0.124E-03  0.124E-03
   2.882  0.120E-03  0.120E-03
   2.892  0.116E-03  0.116E-03
   2.902  0.112E-03  0.112E-03
   2.912  0.109E-03  0.109E-03
   2.922  0.106E-03  0.106E-03
   2.932  0.103E-03  0.103E-03
   2.942  0.101E-03  0.101E-03
   2.952  0.993E-04  0.993E-04
   2.962  0.990E-04  0.990E-04
   2.972  0.100E-03  0.100E-03
   2.982  0.104E-03  0.104E-03
   2.992  0.110E-03  0.110E-03
   3.002  0.116E-03  0.116E-03
   3.012  0.123E-03  0.123E-03
   3.022  0.129E-03  0.129E-03
   3.032  0.134E-03  0.134E-03
   3.042  0.135E-03  0.135E-03
   3.052  0.135E-03  0.135E-03
   3.062  0.132E-03  0.132E-03
   3.072  0.127E-03  0.127E-03
   3.082  0.122E-03  0.122E-03
   3.092  0.116E-03  0.116E-03
   3.102  0.111E-03  0.111E-03
   3.112  0.106E-03  0.106E-03
   3.122  0.101E-03  0.101E-03
   3.132  0.962E-04  0.962E-04
   3.142  0.916E-04  0.916E-04
   3.152  0.868E-04  0.868E-04
   3.162  0.818E-04  0.818E-04
   3.172  0.767E-04  0.767E-04
   3.182  0.716E-04  0.716E-04
   3.192  0.668E-04  0.668E-04
   3.202  0.626E-04  0.626E-04
   3.212  0.591E-04  0.591E-04
   3.222  0.564E-04  0.564E-04
   3.232  0.544E-04  0.544E-04
   3.242  0.530E-04  0.530E-04
   3.252  0.518E-04  0.518E-04
   3.262  0.506E-04  0.506E-04
   3.272  0.490E-04  0.490E-04
   3.282  0.471E-04  0.471E-04
   3.292  0.449E-04  0.449E-04
   3.302  0.424E-04  0.424E-04
   3.312  0.398E-04  0.398E-04
   3.322  0.373E-04  0.373E-04
   3.332  0.350E-04  0.350E-04
   3.342  0.329E-04  0.329E-04
   3.352  0.312E-04  0.312E-04
   3.362  0.296E-04  0.296E-04
   3.372  0.283E-04  0.283E-04
   3.382  0.271E-04  0.271E-04
   3.392  0.261E-04  0.261E-04
   3.402  0.252E-04  0.252E-04
   3.412  0.244E-04  0.244E-04
   3.422  0.236E-04  0.236E-04
   3.432  0.229E-04  0.229E-04
   3.442  0.221E-04  0.221E-04
   3.452  0.212E-04  0.212E-04
   3.462  0.203E-04  0.203E-04
   3.472  0.192E-04  0.192E-04
   3.482  0.182E-04  0.182E-04
   3.492  0.171E-04  0.171E-04
   3.502  0.162E-04  0.162E-04
   3.512  0.154E-04  0.154E-04
   3.522  0.147E-04  0.147E-04
   3.532  0.142E-04  0.142E-04
   3.542  0.139E-04  0.139E-04
   3.552  0.137E-04  0.137E-04
   3.562  0.136E-04  0.136E-04
   3.572  0.135E-04  0.135E-04
   3.582  0.134E-04  0.134E-04
   3.592  0.133E-04  0.133E-04
   3.602  0.131E-04  0.131E-04
   3.612  0.128E-04  0.128E-04
   3.622  0.126E-04  0.126E-04
   3.632  0.125E-04  0.125E-04
   3.642  0.125E-04  0.125E-04
   3.652  0.126E-04  0.126E-04
   3.662  0.129E-04  0.129E-04
   3.672  0.133E-04  0.133E-04
   3.682  0.137E-04  0.137E-04
   3.692  0.140E-04  0.140E-04
   3.702  0.143E-04  0.143E-04
   3.712  0.143E-04  0.143E-04
   3.722  0.140E-04  0.140E-04
   3.732  0.134E-04  0.134E-04
   3.742  0.127E-04  0.127E-04
   3.752  0.117E-04  0.117E-04
   3.762  0.109E-04  0.109E-04
   3.772  0.102E-04  0.102E-04
   3.782  0.982E-05  0.982E-05
   3.792  0.990E-05  0.990E-05
   3.802  0.105E-04  0.105E-04
   3.812  0.115E-04  0.115E-04
   3.822  0.129E-04  0.129E-04
   3.832  0.144E-04  0.144E-04
   3.842  0.160E-04  0.160E-04
   3.852  0.174E-04  0.174E-04
   3.862  0.185E-04  0.185E-04
   3.872  0.193E-04  0.193E-04
   3.882  0.197E-04  0.197E-04
   3.892  0.197E-04  0.197E-04
   3.902  0.194E-04  0.194E-04
   3.912  0.190E-04  0.190E-04
   3.922  0.184E-04  0.184E-04
   3.932  0.178E-04  0.178E-04
   3.942  0.172E-04  0.172E-04
   3.952  0.167E-04  0.167E-04
   3.962  0.164E-04  0.164E-04
   3.972  0.163E-04  0.163E-04
   3.982  0.166E-04  0.166E-04
   3.992  0.176E-04  0.176E-04
   4.002  0.195E-04  0.195E-04
   4.012  0.225E-04  0.225E-04
   4.022  0.270E-04  0.270E-04
   4.032  0.329E-04  0.329E-04
   4.042  0.401E-04  0.401E-04
   4.052  0.484E-04  0.484E-04
   4.062  0.572E-04  0.572E-04
   4.072  0.660E-04  0.660E-04
   4.082  0.741E-04  0.741E-04
   4.092  0.808E-04  0.808E-04
   4.102  0.857E-04  0.857E-04
   4.112  0.885E-04  0.885E-04
   4.122  0.893E-04  0.893E-04
   4.132  0.882E-04  0.882E-04
   4.142  0.857E-04  0.857E-04
   4.152  0.823E-04  0.823E-04
   4.162  0.783E-04  0.783E-04
   4.172  0.742E-04  0.742E-04
   4.182  0.704E-04  0.704E-04
   4.192  0.671E-04  0.671E-04
   4.202  0.645E-04  0.645E-04
   4.212  0.628E-04  0.628E-04
   4.222  0.620E-04  0.620E-04
   4.232  0.621E-04  0.621E-04
   4.242  0.631E-04  0.631E-04
   4.252  0.648E-04  0.648E-04
   4.262  0.668E-04  0.668E-04
   4.272  0.688E-04  0.688E-04
   4.282  0.706E-04  0.706E-04
   4.292  0.718E-04  0.718E-04
   4.302  0.724E-04  0.724E-04
   4.312  0.720E-04  0.720E-04
   4.322  0.708E-04  0.708E-04
   4.332  0.687E-04  0.687E-04
   4.342  0.659E-04  0.659E-04
   4.352  0.627E-04  0.627E-04
   4.362  0.593E-04  0.593E-04
   4.372  0.560E-04  0.560E-04
   4.382  0.532E-04  0.532E-04
   4.392  0.509E-04  0.509E-04
   4.402  0.493E-04  0.493E-04
   4.412  0.482E-04  0.482E-04
   4.422  0.477E-04  0.477E-04
   4.432  0.475E-04  0.475E-04
   4.442  0.478E-04  0.478E-04
   4.452  0.485E-04  0.485E-04
   4.462  0.498E-04  0.498E-04
   4.472  0.517E-04  0.517E-04
   4.482  0.540E-04  0.540E-04
   4.492  0.566E-04  0.566E-04
   4.502  0.592E-04  0.592E-04
   4.512  0.614E-04  0.614E-04
   4.522  0.628E-04  0.628E-04
   4.532  0.633E-04  0.633E-04
   4.542  0.628E-04  0.628E-04
   4.552  0.613E-04  0.613E-04
   4.562  0.589E-04  0.589E-04
   4.572  0.560E-04  0.560E-04
   4.582  0.527E-04  0.527E-04
   4.592  0.493E-04  0.493E-04
   4.602  0.459E-04  0.459E-04
   4.612  0.428E-04  0.428E-04
   4.622  0.401E-04  0.401E-04
   4.632  0.381E-04  0.381E-04
   4.642  0.370E-04  0.370E-04
   4.652  0.369E-04  0.369E-04
   4.662  0.379E-04  0.379E-04
   4.672  0.398E-04  0.398E-04
   4.682  0.426E-04  0.426E-04
   4.692  0.460E-04  0.460E-04
   4.702  0.495E-04  0.495E-04
   4.712  0.530E-04  0.530E-04
   4.722  0.561E-04  0.561E-04
   4.732  0.584E-04  0.584E-04
   4.742  0.600E-04  0.600E-04
   4.752  0.606E-04  0.606E-04
   4.762  0.603E-04  0.603E-04
   4.772  0.591E-04  0.591E-04
   4.782  0.573E-04  0.573E-04
   4.792  0.550E-04  0.550E-04
   4.802  0.525E-04  0.525E-04
   4.812  0.498E-04  0.498E-04
   4.822  0.470E-04  0.470E-04
   4.832  0.443E-04  0.443E-04
   4.842  0.417E-04  0.417E-04
   4.852  0.392E-04  0.392E-04
   4.862  0.370E-04  0.370E-04
   4.872  0.351E-04  0.351E-04
   4.882  0.338E-04  0.338E-04
   4.892  0.333E-04  0.333E-04
   4.902  0.339E-04  0.339E-04
   4.912  0.358E-04  0.358E-04
   4.922  0.387E-04  0.387E-04
   4.932  0.427E-04  0.427E-04
   4.942  0.474E-04  0.474E-04
   4.952  0.522E-04  0.522E-04
   4.962  0.566E-04  0.566E-04
   4.972  0.603E-04  0.603E-04
   4.982  0.627E-04  0.627E-04
   4.992  0.637E-04  0.637E-04
   5.002  0.632E-04  0.632E-04
   5.012  0.612E-04  0.612E-04
   5.022  0.581E-04  0.581E-04
   5.032  0.541E-04  0.541E-04
   5.042  0.497E-04  0.497E-04
   5.052  0.454E-04  0.454E-04
   5.062  0.414E-04  0.414E-04
   5.072  0.383E-04  0.383E-04
   5.082  0.361E-04  0.361E-04
   5.092  0.351E-04  0.351E-04
   5.102  0.353E-04  0.353E-04
   5.112  0.365E-04  0.365E-04
   5.122  0.386E-04  0.386E-04
   5.132  0.413E-04  0.413E-04
   5.142  0.445E-04  0.445E-04
   5.152  0.482E-04  0.482E-04
   5.162  0.525E-04  0.525E-04
   5.172  0.573E-04  0.573E-04
   5.182  0.629E-04  0.629E-04
   5.192  0.690E-04  0.690E-04
   5.202  0.755E-04  0.755E-04
   5.212  0.819E-04  0.819E-04
   5.222  0.876E-04  0.876E-04
   5.232  0.922E-04  0.922E-04
   5.242  0.952E-04  0.952E-04
   5.252  0.962E-04  0.962E-04
   5.262  0.954E-04  0.954E-04
   5.272  0.931E-04  0.931E-04
   5.282  0.896E-04  0.896E-04
   5.292  0.857E-04  0.857E-04
   5.302  0.818E-04  0.818E-04
   5.312  0.786E-04  0.786E-04
   5.322  0.763E-04  0.763E-04
   5.332  0.752E-04  0.752E-04
   5.342  0.751E-04  0.751E-04
   5.352  0.757E-04  0.757E-04
   5.362  0.766E-04  0.766E-04
   5.372  0.773E-04  0.773E-04
   5.382  0.774E-04  0.774E-04
   5.392  0.766E-04  0.766E-04
   5.402  0.751E-04  0.751E-04
   5.412  0.730E-04  0.730E-04
   5.422  0.710E-04  0.710E-04
   5.432  0.695E-04  0.695E-04
   5.442  0.691E-04  0.691E-04
   5.452  0.701E-04  0.701E-04
   5.462  0.725E-04  0.725E-04
   5.472  0.761E-04  0.761E-04
   5.482  0.803E-04  0.803E-04
   5.492  0.844E-04  0.844E-04
   5.502  0.880E-04  0.880E-04
   5.512  0.904E-04  0.904E-04
   5.522  0.916E-04  0.916E-04
   5.532  0.915E-04  0.915E-04
   5.542  0.905E-04  0.905E-04
   5.552  0.890E-04  0.890E-04
   5.562  0.878E-04  0.878E-04
   5.572  0.875E-04  0.875E-04
   5.582  0.888E-04  0.888E-04
   5.592  0.924E-04  0.924E-04
   5.602  0.990E-04  0.990E-04
   5.612  0.109E-03  0.109E-03
   5.622  0.123E-03  0.123E-03
   5.632  0.140E-03  0.140E-03
   5.642  0.160E-03  0.160E-03
   5.652  0.183E-03  0.183E-03
   5.662  0.206E-03  0.206E-03
   5.672  0.229E-03  0.229E-03
   5.682  0.250E-03  0.250E-03
   5.692  0.268E-03  0.268E-03
   5.702  0.282E-03  0.282E-03
   5.712  0.293E-03  0.293E-03
   5.722  0.299E-03  0.299E-03
   5.732  0.303E-03  0.303E-03
   5.742  0.305E-03  0.305E-03
   5.752  0.305E-03  0.305E-03
   5.762  0.303E-03  0.303E-03
   5.772  0.301E-03  0.301E-03
   5.782  0.299E-03  0.299E-03
   5.792  0.297E-03  0.297E-03
   5.802  0.295E-03  0.295E-03
   5.812  0.293E-03  0.293E-03
   5.822  0.292E-03  0.292E-03
   5.832  0.292E-03  0.292E-03
   5.842  0.293E-03  0.293E-03
   5.852  0.294E-03  0.294E-03
   5.862  0.295E-03  0.295E-03
   5.872  0.298E-03  0.298E-03
   5.882  0.301E-03  0.301E-03
   5.892  0.305E-03  0.305E-03
   5.902  0.310E-03  0.310E-03
   5.912  0.315E-03  0.315E-03
   5.922  0.320E-03  0.320E-03
   5.932  0.323E-03  0.323E-03
   5.942  0.325E-03  0.325E-03
   5.952  0.323E-03  0.323E-03
   5.962  0.318E-03  0.318E-03
   5.972  0.310E-03  0.310E-03
   5.982  0.300E-03  0.300E-03
   5.992  0.288E-03  0.288E-03
   6.002  0.277E-03  0.277E-03
   6.012  0.268E-03  0.268E-03
   6.022  0.264E-03  0.264E-03
   6.032  0.266E-03  0.266E-03
   6.042  0.274E-03  0.274E-03
   6.052  0.288E-03  0.288E-03
   6.062  0.305E-03  0.305E-03
   6.072  0.324E-03  0.324E-03
   6.082  0.341E-03  0.341E-03
   6.092  0.353E-03  0.353E-03
   6.102  0.359E-03  0.359E-03
   6.112  0.358E-03  0.358E-03
   6.122  0.352E-03  0.352E-03
   6.132  0.342E-03  0.342E-03
   6.142  0.332E-03  0.332E-03
   6.152  0.323E-03  0.323E-03
   6.162  0.319E-03  0.319E-03
   6.172  0.319E-03  0.319E-03
   6.182  0.324E-03  0.324E-03
   6.192  0.333E-03  0.333E-03
   6.202  0.346E-03  0.346E-03
   6.212  0.361E-03  0.361E-03
   6.222  0.376E-03  0.376E-03
   6.232  0.392E-03  0.392E-03
   6.242  0.407E-03  0.407E-03
   6.252  0.420E-03  0.420E-03
   6.262  0.431E-03  0.431E-03
   6.272  0.438E-03  0.438E-03
   6.282  0.442E-03  0.442E-03
   6.292  0.442E-03  0.442E-03
   6.302  0.438E-03  0.438E-03
   6.312  0.432E-03  0.432E-03
   6.322  0.425E-03  0.425E-03
   6.332  0.419E-03  0.419E-03
   6.342  0.416E-03  0.416E-03
   6.352  0.418E-03  0.418E-03
   6.362  0.428E-03  0.428E-03
   6.372  0.445E-03  0.445E-03
   6.382  0.470E-03  0.470E-03
   6.392  0.501E-03  0.501E-03
   6.402  0.534E-03  0.534E-03
   6.412  0.567E-03  0.567E-03
   6.422  0.595E-03  0.595E-03
   6.432  0.613E-03  0.613E-03
   6.442  0.619E-03  0.619E-03
   6.452  0.613E-03  0.613E-03
   6.462  0.596E-03  0.596E-03
   6.472  0.572E-03  0.572E-03
   6.482  0.547E-03  0.547E-03
   6.492  0.529E-03  0.529E-03
   6.502  0.522E-03  0.522E-03
   6.512  0.533E-03  0.533E-03
   6.522  0.562E-03  0.562E-03
   6.532  0.609E-03  0.609E-03
   6.542  0.670E-03  0.670E-03
   6.552  0.740E-03  0.740E-03
   6.562  0.813E-03  0.813E-03
   6.572  0.883E-03  0.883E-03
   6.582  0.944E-03  0.944E-03
   6.592  0.992E-03  0.992E-03
   6.602  0.102E-02  0.102E-02
   6.612  0.104E-02  0.104E-02
   6.622  0.106E-02  0.106E-02
   6.632  0.107E-02  0.107E-02
   6.642  0.112E-02  0.112E-02
   6.652  0.122E-02  0.122E-02
   6.662  0.143E-02  0.143E-02
   6.672  0.183E-02  0.183E-02
   6.682  0.252E-02  0.252E-02
   6.692  0.363E-02  0.363E-02
   6.702  0.534E-02  0.534E-02
   6.712  0.785E-02  0.785E-02
   6.722  0.113E-01  0.113E-01
   6.732  0.160E-01  0.160E-01
   6.742  0.219E-01  0.219E-01
   6.752  0.291E-01  0.291E-01
   6.762  0.372E-01  0.372E-01
   6.772  0.461E-01  0.461E-01
   6.782  0.551E-01  0.551E-01
   6.792  0.636E-01  0.636E-01
   6.802  0.713E-01  0.713E-01
   6.812  0.775E-01  0.775E-01
   6.822  0.822E-01  0.822E-01
   6.832  0.853E-01  0.853E-01
   6.842  0.873E-01  0.873E-01
   6.852  0.886E-01  0.886E-01
   6.862  0.896E-01  0.896E-01
   6.872  0.907E-01  0.907E-01
   6.882  0.918E-01  0.918E-01
   6.892  0.930E-01  0.930E-01
   6.902  0.937E-01  0.937E-01
   6.912  0.939E-01  0.939E-01
   6.922  0.932E-01  0.932E-01
   6.932  0.920E-01  0.920E-01
   6.942  0.906E-01  0.906E-01
   6.952  0.899E-01  0.899E-01
   6.962  0.909E-01  0.909E-01
   6.972  0.946E-01  0.946E-01
   6.982  0.101E+00  0.101E+00
   6.992  0.111E+00  0.111E+00
   7.002  0.124E+00  0.124E+00
   7.012  0.139E+00  0.139E+00
   7.022  0.153E+00  0.153E+00
   7.032  0.167E+00  0.167E+00
   7.042  0.178E+00  0.178E+00
   7.052  0.186E+00  0.186E+00
   7.062  0.190E+00  0.190E+00
   7.072  0.191E+00  0.191E+00
   7.082  0.190E+00  0.190E+00
   7.092  0.187E+00  0.187E+00
   7.102  0.183E+00  0.183E+00
   7.112  0.179E+00  0.179E+00
   7.122  0.175E+00  0.175E+00
   7.132  0.170E+00  0.170E+00
   7.142  0.165E+00  0.165E+00
   7.152  0.159E+00  0.159E+00
   7.162  0.152E+00  0.152E+00
   7.172  0.146E+00  0.146E+00
   7.182  0.141E+00  0.141E+00
   7.192  0.138E+00  0.138E+00
   7.202  0.138E+00  0.138E+00
   7.212  0.141E+00  0.141E+00
   7.222  0.148E+00  0.148E+00
   7.232  0.157E+00  0.157E+00
   7.242  0.167E+00  0.167E+00
   7.252  0.178E+00  0.178E+00
   7.262  0.189E+00  0.189E+00
   7.272  0.197E+00  0.197E+00
   7.282  0.203E+00  0.203E+00
   7.292  0.206E+00  0.206E+00
   7.302  0.205E+00  0.205E+00
   7.312  0.202E+00  0.202E+00
   7.322  0.197E+00  0.197E+00
   7.332  0.189E+00  0.189E+00
   7.342  0.180E+00  0.180E+00
   7.352  0.170E+00  0.170E+00
   7.362  0.159E+00  0.159E+00
   7.372  0.148E+00  0.148E+00
   7.382  0.138E+00  0.138E+00
   7.392  0.129E+00  0.129E+00
   7.402  0.124E+00  0.124E+00
   7.412  0.123E+00  0.123E+00
   7.422  0.126E+00  0.126E+00
   7.432  0.134E+00  0.134E+00
   7.442  0.146E+00  0.146E+00
   7.452  0.162E+00  0.162E+00
   7.462  0.179E+00  0.179E+00
   7.472  0.197E+00  0.197E+00
   7.482  0.214E+00  0.214E+00
   7.492  0.227E+00  0.227E+00
   7.502  0.236E+00  0.236E+00
   7.512  0.239E+00  0.239E+00
   7.522  0.237E+00  0.237E+00
   7.532  0.228E+00  0.228E+00
   7.542  0.215E+00  0.215E+00
   7.552  0.198E+00  0.198E+00
   7.562  0.178E+00  0.178E+00
   7.572  0.158E+00  0.158E+00
   7.582  0.138E+00  0.138E+00
   7.592  0.120E+00  0.120E+00
   7.602  0.106E+00  0.106E+00
   7.612  0.956E-01  0.956E-01
   7.622  0.904E-01  0.904E-01
   7.632  0.901E-01  0.901E-01
   7.642  0.939E-01  0.939E-01
   7.652  0.101E+00  0.101E+00
   7.662  0.111E+00  0.111E+00
   7.672  0.122E+00  0.122E+00
   7.682  0.134E+00  0.134E+00
   7.692  0.145E+00  0.145E+00
   7.702  0.156E+00  0.156E+00
   7.712  0.167E+00  0.167E+00
   7.722  0.176E+00  0.176E+00
   7.732  0.183E+00  0.183E+00
   7.742  0.189E+00  0.189E+00
   7.752  0.193E+00  0.193E+00
   7.762  0.193E+00  0.193E+00
   7.772  0.191E+00  0.191E+00
   7.782  0.185E+00  0.185E+00
   7.792  0.178E+00  0.178E+00
   7.802  0.168E+00  0.168E+00
   7.812  0.159E+00  0.159E+00
   7.822  0.150E+00  0.150E+00
   7.832  0.144E+00  0.144E+00
   7.842  0.139E+00  0.139E+00
   7.852  0.137E+00  0.137E+00
   7.862  0.138E+00  0.138E+00
   7.872  0.140E+00  0.140E+00
   7.882  0.144E+00  0.144E+00
   7.892  0.147E+00  0.147E+00
   7.902  0.150E+00  0.150E+00
   7.912  0.152E+00  0.152E+00
   7.922  0.152E+00  0.152E+00
   7.932  0.151E+00  0.151E+00
   7.942  0.149E+00  0.149E+00
   7.952  0.146E+00  0.146E+00
   7.962  0.144E+00  0.144E+00
   7.972  0.142E+00  0.142E+00
   7.982  0.141E+00  0.141E+00
   7.992  0.141E+00  0.141E+00
   8.002  0.143E+00  0.143E+00
   8.012  0.147E+00  0.147E+00
   8.022  0.151E+00  0.151E+00
   8.032  0.155E+00  0.155E+00
   8.042  0.160E+00  0.160E+00
   8.052  0.163E+00  0.163E+00
   8.062  0.165E+00  0.165E+00
   8.072  0.165E+00  0.165E+00
   8.082  0.164E+00  0.164E+00
   8.092  0.161E+00  0.161E+00
   8.102  0.156E+00  0.156E+00
   8.112  0.150E+00  0.150E+00
   8.122  0.143E+00  0.143E+00
   8.132  0.136E+00  0.136E+00
   8.142  0.129E+00  0.129E+00
   8.152  0.121E+00  0.121E+00
   8.162  0.114E+00  0.114E+00
   8.172  0.107E+00  0.107E+00
   8.182  0.101E+00  0.101E+00
   8.192  0.942E-01  0.942E-01
   8.202  0.878E-01  0.878E-01
   8.212  0.815E-01  0.815E-01
   8.222  0.752E-01  0.752E-01
   8.232  0.692E-01  0.692E-01
   8.242  0.641E-01  0.641E-01
   8.252  0.603E-01  0.603E-01
   8.262  0.586E-01  0.586E-01
   8.272  0.593E-01  0.593E-01
   8.282  0.628E-01  0.628E-01
   8.292  0.691E-01  0.691E-01
   8.302  0.777E-01  0.777E-01
   8.312  0.878E-01  0.878E-01
   8.322  0.984E-01  0.984E-01
   8.332  0.108E+00  0.108E+00
   8.342  0.117E+00  0.117E+00
   8.352  0.122E+00  0.122E+00
   8.362  0.124E+00  0.124E+00
   8.372  0.124E+00  0.124E+00
   8.382  0.120E+00  0.120E+00
   8.392  0.114E+00  0.114E+00
   8.402  0.107E+00  0.107E+00
   8.412  0.101E+00  0.101E+00
   8.422  0.957E-01  0.957E-01
   8.432  0.928E-01  0.928E-01
   8.442  0.922E-01  0.922E-01
   8.452  0.937E-01  0.937E-01
   8.462  0.964E-01  0.964E-01
   8.472  0.991E-01  0.991E-01
   8.482  0.101E+00  0.101E+00
   8.492  0.100E+00  0.100E+00
   8.502  0.967E-01  0.967E-01
   8.512  0.903E-01  0.903E-01
   8.522  0.813E-01  0.813E-01
   8.532  0.707E-01  0.707E-01
   8.542  0.595E-01  0.595E-01
   8.552  0.491E-01  0.491E-01
   8.562  0.406E-01  0.406E-01
   8.572  0.349E-01  0.349E-01
   8.582  0.324E-01  0.324E-01
   8.592  0.333E-01  0.333E-01
   8.602  0.372E-01  0.372E-01
   8.612  0.433E-01  0.433E-01
   8.622  0.508E-01  0.508E-01
   8.632  0.587E-01  0.587E-01
   8.642  0.661E-01  0.661E-01
   8.652  0.725E-01  0.725E-01
   8.662  0.775E-01  0.775E-01
   8.672  0.812E-01  0.812E-01
   8.682  0.840E-01  0.840E-01
   8.692  0.863E-01  0.863E-01
   8.702  0.882E-01  0.882E-01
   8.712  0.898E-01  0.898E-01
   8.722  0.911E-01  0.911E-01
   8.732  0.914E-01  0.914E-01
   8.742  0.905E-01  0.905E-01
   8.752  0.881E-01  0.881E-01
   8.762  0.841E-01  0.841E-01
   8.772  0.792E-01  0.792E-01
   8.782  0.740E-01  0.740E-01
   8.792  0.696E-01  0.696E-01
   8.802  0.666E-01  0.666E-01
   8.812  0.657E-01  0.657E-01
   8.822  0.666E-01  0.666E-01
   8.832  0.689E-01  0.689E-01
   8.842  0.716E-01  0.716E-01
   8.852  0.737E-01  0.737E-01
   8.862  0.744E-01  0.744E-01
   8.872  0.732E-01  0.732E-01
   8.882  0.702E-01  0.702E-01
   8.892  0.658E-01  0.658E-01
   8.902  0.609E-01  0.609E-01
   8.912  0.565E-01  0.565E-01
   8.922  0.534E-01  0.534E-01
   8.932  0.521E-01  0.521E-01
   8.942  0.527E-01  0.527E-01
   8.952  0.548E-01  0.548E-01
   8.962  0.577E-01  0.577E-01
   8.972  0.606E-01  0.606E-01
   8.982  0.626E-01  0.626E-01
   8.992  0.632E-01  0.632E-01
   9.002  0.620E-01  0.620E-01
   9.012  0.592E-01  0.592E-01
   9.022  0.550E-01  0.550E-01
   9.032  0.501E-01  0.501E-01
   9.042  0.453E-01  0.453E-01
   9.052  0.414E-01  0.414E-01
   9.062  0.390E-01  0.390E-01
   9.072  0.387E-01  0.387E-01
   9.082  0.405E-01  0.405E-01
   9.092  0.443E-01  0.443E-01
   9.102  0.494E-01  0.494E-01
   9.112  0.551E-01  0.551E-01
   9.122  0.603E-01  0.603E-01
   9.132  0.642E-01  0.642E-01
   9.142  0.663E-01  0.663E-01
   9.152  0.663E-01  0.663E-01
   9.162  0.646E-01  0.646E-01
   9.172  0.622E-01  0.622E-01
   9.182  0.599E-01  0.599E-01
   9.192  0.589E-01  0.589E-01
   9.202  0.598E-01  0.598E-01
   9.212  0.628E-01  0.628E-01
   9.222  0.676E-01  0.676E-01
   9.232  0.734E-01  0.734E-01
   9.242  0.790E-01  0.790E-01
   9.252  0.834E-01  0.834E-01
   9.262  0.858E-01  0.858E-01
   9.272  0.858E-01  0.858E-01
   9.282  0.834E-01  0.834E-01
   9.292  0.791E-01  0.791E-01
   9.302  0.734E-01  0.734E-01
   9.312  0.669E-01  0.669E-01
   9.322  0.603E-01  0.603E-01
   9.332  0.538E-01  0.538E-01
   9.342  0.478E-01  0.478E-01
   9.352  0.422E-01  0.422E-01
   9.362  0.374E-01  0.374E-01
   9.372  0.332E-01  0.332E-01
   9.382  0.299E-01  0.299E-01
   9.392  0.275E-01  0.275E-01
   9.402  0.258E-01  0.258E-01
   9.412  0.249E-01  0.249E-01
   9.422  0.246E-01  0.246E-01
   9.432  0.248E-01  0.248E-01
   9.442  0.254E-01  0.254E-01
   9.452  0.264E-01  0.264E-01
   9.462  0.279E-01  0.279E-01
   9.472  0.299E-01  0.299E-01
   9.482  0.324E-01  0.324E-01
   9.492  0.352E-01  0.352E-01
   9.502  0.384E-01  0.384E-01
   9.512  0.417E-01  0.417E-01
   9.522  0.450E-01  0.450E-01
   9.532  0.482E-01  0.482E-01
   9.542  0.514E-01  0.514E-01
   9.552  0.546E-01  0.546E-01
   9.562  0.581E-01  0.581E-01
   9.572  0.620E-01  0.620E-01
   9.582  0.667E-01  0.667E-01
   9.592  0.721E-01  0.721E-01
   9.602  0.780E-01  0.780E-01
   9.612  0.840E-01  0.840E-01
   9.622  0.894E-01  0.894E-01
   9.632  0.933E-01  0.933E-01
   9.642  0.948E-01  0.948E-01
   9.652  0.934E-01  0.934E-01
   9.662  0.887E-01  0.887E-01
   9.672  0.809E-01  0.809E-01
   9.682  0.709E-01  0.709E-01
   9.692  0.595E-01  0.595E-01
   9.702  0.481E-01  0.481E-01
   9.712  0.375E-01  0.375E-01
   9.722  0.286E-01  0.286E-01
   9.732  0.219E-01  0.219E-01
   9.742  0.176E-01  0.176E-01
   9.752  0.156E-01  0.156E-01
   9.762  0.155E-01  0.155E-01
   9.772  0.171E-01  0.171E-01
   9.782  0.199E-01  0.199E-01
   9.792  0.234E-01  0.234E-01
   9.802  0.271E-01  0.271E-01
   9.812  0.308E-01  0.308E-01
   9.822  0.341E-01  0.341E-01
   9.832  0.368E-01  0.368E-01
   9.842  0.387E-01  0.387E-01
   9.852  0.398E-01  0.398E-01
   9.862  0.401E-01  0.401E-01
   9.872  0.398E-01  0.398E-01
   9.882  0.391E-01  0.391E-01
   9.892  0.382E-01  0.382E-01
   9.902  0.376E-01  0.376E-01
   9.912  0.376E-01  0.376E-01
   9.922  0.387E-01  0.387E-01
   9.932  0.412E-01  0.412E-01
   9.942  0.453E-01  0.453E-01
   9.952  0.510E-01  0.510E-01
   9.962  0.581E-01  0.581E-01
   9.972  0.661E-01  0.661E-01
   9.982  0.744E-01  0.744E-01
   9.992  0.820E-01  0.820E-01
  10.002  0.880E-01  0.880E-01
  10.012  0.919E-01  0.919E-01
  10.022  0.928E-01  0.928E-01
  10.032  0.906E-01  0.906E-01
  10.042  0.853E-01  0.853E-01
  10.052  0.774E-01  0.774E-01
  10.062  0.676E-01  0.676E-01
  10.072  0.569E-01  0.569E-01
  10.082  0.464E-01  0.464E-01
  10.092  0.370E-01  0.370E-01
  10.102  0.295E-01  0.295E-01
  10.112  0.242E-01  0.242E-01
  10.122  0.211E-01  0.211E-01
  10.132  0.200E-01  0.200E-01
  10.142  0.204E-01  0.204E-01
  10.152  0.219E-01  0.219E-01
  10.162  0.242E-01  0.242E-01
  10.172  0.270E-01  0.270E-01
  10.182  0.300E-01  0.300E-01
  10.192  0.331E-01  0.331E-01
  10.202  0.361E-01  0.361E-01
  10.212  0.388E-01  0.388E-01
  10.222  0.412E-01  0.412E-01
  10.232  0.430E-01  0.430E-01
  10.242  0.443E-01  0.443E-01
  10.252  0.451E-01  0.451E-01
  10.262  0.454E-01  0.454E-01
  10.272  0.455E-01  0.455E-01
  10.282  0.454E-01  0.454E-01
  10.292  0.455E-01  0.455E-01
  10.302  0.456E-01  0.456E-01
  10.312  0.460E-01  0.460E-01
  10.322  0.467E-01  0.467E-01
  10.332  0.477E-01  0.477E-01
  10.342  0.492E-01  0.492E-01
  10.352  0.510E-01  0.510E-01
  10.362  0.531E-01  0.531E-01
  10.372  0.553E-01  0.553E-01
  10.382  0.573E-01  0.573E-01
  10.392  0.588E-01  0.588E-01
  10.402  0.594E-01  0.594E-01
  10.412  0.589E-01  0.589E-01
  10.422  0.569E-01  0.569E-01
  10.432  0.535E-01  0.535E-01
  10.442  0.487E-01  0.487E-01
  10.452  0.428E-01  0.428E-01
  10.462  0.361E-01  0.361E-01
  10.472  0.292E-01  0.292E-01
  10.482  0.224E-01  0.224E-01
  10.492  0.163E-01  0.163E-01
  10.502  0.111E-01  0.111E-01
  10.512  0.719E-02  0.719E-02
  10.522  0.456E-02  0.456E-02
  10.532  0.322E-02  0.322E-02
  10.542  0.314E-02  0.314E-02
  10.552  0.421E-02  0.421E-02
  10.562  0.636E-02  0.636E-02
  10.572  0.952E-02  0.952E-02
  10.582  0.136E-01  0.136E-01
  10.592  0.185E-01  0.185E-01
  10.602  0.240E-01  0.240E-01
  10.612  0.298E-01  0.298E-01
  10.622  0.356E-01  0.356E-01
  10.632  0.408E-01  0.408E-01
  10.642  0.449E-01  0.449E-01
  10.652  0.476E-01  0.476E-01
  10.662  0.485E-01  0.485E-01
  10.672  0.477E-01  0.477E-01
  10.682  0.452E-01  0.452E-01
  10.692  0.416E-01  0.416E-01
  10.702  0.372E-01  0.372E-01
  10.712  0.326E-01  0.326E-01
  10.722  0.285E-01  0.285E-01
  10.732  0.252E-01  0.252E-01
  10.742  0.231E-01  0.231E-01
  10.752  0.222E-01  0.222E-01
  10.762  0.223E-01  0.223E-01
  10.772  0.234E-01  0.234E-01
  10.782  0.249E-01  0.249E-01
  10.792  0.263E-01  0.263E-01
  10.802  0.275E-01  0.275E-01
  10.812  0.279E-01  0.279E-01
  10.822  0.274E-01  0.274E-01
  10.832  0.260E-01  0.260E-01
  10.842  0.239E-01  0.239E-01
  10.852  0.212E-01  0.212E-01
  10.862  0.182E-01  0.182E-01
  10.872  0.153E-01  0.153E-01
  10.882  0.126E-01  0.126E-01
  10.892  0.104E-01  0.104E-01
  10.902  0.880E-02  0.880E-02
  10.912  0.794E-02  0.794E-02
  10.922  0.789E-02  0.789E-02
  10.932  0.871E-02  0.871E-02
  10.942  0.104E-01  0.104E-01
  10.952  0.131E-01  0.131E-01
  10.962  0.168E-01  0.168E-01
  10.972  0.212E-01  0.212E-01
  10.982  0.263E-01  0.263E-01
  10.992  0.318E-01  0.318E-01
  11.002  0.373E-01  0.373E-01
  11.012  0.424E-01  0.424E-01
  11.022  0.467E-01  0.467E-01
  11.032  0.500E-01  0.500E-01
  11.042  0.521E-01  0.521E-01
  11.052  0.531E-01  0.531E-01
  11.062  0.532E-01  0.532E-01
  11.072  0.525E-01  0.525E-01
  11.082  0.511E-01  0.511E-01
  11.092  0.491E-01  0.491E-01
  11.102  0.466E-01  0.466E-01
  11.112  0.435E-01  0.435E-01
  11.122  0.399E-01  0.399E-01
  11.132  0.359E-01  0.359E-01
  11.142  0.318E-01  0.318E-01
  11.152  0.278E-01  0.278E-01
  11.162  0.244E-01  0.244E-01
  11.172  0.215E-01  0.215E-01
  11.182  0.194E-01  0.194E-01
  11.192  0.179E-01  0.179E-01
  11.202  0.169E-01  0.169E-01
  11.212  0.161E-01  0.161E-01
  11.222  0.154E-01  0.154E-01
  11.232  0.148E-01  0.148E-01
  11.242  0.141E-01  0.141E-01
  11.252  0.135E-01  0.135E-01
  11.262  0.130E-01  0.130E-01
  11.272  0.127E-01  0.127E-01
  11.282  0.125E-01  0.125E-01
  11.292  0.126E-01  0.126E-01
  11.302  0.129E-01  0.129E-01
  11.312  0.135E-01  0.135E-01
  11.322  0.144E-01  0.144E-01
  11.332  0.157E-01  0.157E-01
  11.342  0.173E-01  0.173E-01
  11.352  0.192E-01  0.192E-01
  11.362  0.213E-01  0.213E-01
  11.372  0.235E-01  0.235E-01
  11.382  0.256E-01  0.256E-01
  11.392  0.274E-01  0.274E-01
  11.402  0.288E-01  0.288E-01
  11.412  0.297E-01  0.297E-01
  11.422  0.302E-01  0.302E-01
  11.432  0.303E-01  0.303E-01
  11.442  0.304E-01  0.304E-01
  11.452  0.307E-01  0.307E-01
  11.462  0.315E-01  0.315E-01
  11.472  0.326E-01  0.326E-01
  11.482  0.341E-01  0.341E-01
  11.492  0.357E-01  0.357E-01
  11.502  0.367E-01  0.367E-01
  11.512  0.369E-01  0.369E-01
  11.522  0.359E-01  0.359E-01
  11.532  0.335E-01  0.335E-01
  11.542  0.298E-01  0.298E-01
  11.552  0.253E-01  0.253E-01
  11.562  0.205E-01  0.205E-01
  11.572  0.158E-01  0.158E-01
  11.582  0.119E-01  0.119E-01
  11.592  0.911E-02  0.911E-02
  11.602  0.752E-02  0.752E-02
  11.612  0.716E-02  0.716E-02
  11.622  0.788E-02  0.788E-02
  11.632  0.945E-02  0.945E-02
  11.642  0.116E-01  0.116E-01
  11.652  0.141E-01  0.141E-01
  11.662  0.166E-01  0.166E-01
  11.672  0.189E-01  0.189E-01
  11.682  0.209E-01  0.209E-01
  11.692  0.224E-01  0.224E-01
  11.702  0.232E-01  0.232E-01
  11.712  0.233E-01  0.233E-01
  11.722  0.228E-01  0.228E-01
  11.732  0.217E-01  0.217E-01
  11.742  0.202E-01  0.202E-01
  11.752  0.184E-01  0.184E-01
  11.762  0.167E-01  0.167E-01
  11.772  0.151E-01  0.151E-01
  11.782  0.138E-01  0.138E-01
  11.792  0.130E-01  0.130E-01
  11.802  0.126E-01  0.126E-01
  11.812  0.126E-01  0.126E-01
  11.822  0.129E-01  0.129E-01
  11.832  0.135E-01  0.135E-01
  11.842  0.143E-01  0.143E-01
  11.852  0.152E-01  0.152E-01
  11.862  0.163E-01  0.163E-01
  11.872  0.173E-01  0.173E-01
  11.882  0.183E-01  0.183E-01
  11.892  0.192E-01  0.192E-01
  11.902  0.199E-01  0.199E-01
  11.912  0.205E-01  0.205E-01
  11.922  0.209E-01  0.209E-01
  11.932  0.213E-01  0.213E-01
  11.942  0.216E-01  0.216E-01
  11.952  0.219E-01  0.219E-01
  11.962  0.221E-01  0.221E-01
  11.972  0.222E-01  0.222E-01
  11.982  0.221E-01  0.221E-01
  11.992  0.218E-01  0.218E-01
  12.002  0.213E-01  0.213E-01
  12.012  0.209E-01  0.209E-01
  12.022  0.206E-01  0.206E-01
  12.032  0.205E-01  0.205E-01
  12.042  0.208E-01  0.208E-01
  12.052  0.212E-01  0.212E-01
  12.062  0.218E-01  0.218E-01
  12.072  0.221E-01  0.221E-01
  12.082  0.220E-01  0.220E-01
  12.092  0.214E-01  0.214E-01
  12.102  0.204E-01  0.204E-01
  12.112  0.189E-01  0.189E-01
  12.122  0.172E-01  0.172E-01
  12.132  0.156E-01  0.156E-01
  12.142  0.142E-01  0.142E-01
  12.152  0.133E-01  0.133E-01
  12.162  0.130E-01  0.130E-01
  12.172  0.132E-01  0.132E-01
  12.182  0.140E-01  0.140E-01
  12.192  0.152E-01  0.152E-01
  12.202  0.168E-01  0.168E-01
  12.212  0.186E-01  0.186E-01
  12.222  0.204E-01  0.204E-01
  12.232  0.222E-01  0.222E-01
  12.242  0.238E-01  0.238E-01
  12.252  0.251E-01  0.251E-01
  12.262  0.262E-01  0.262E-01
  12.272  0.269E-01  0.269E-01
  12.282  0.273E-01  0.273E-01
  12.292  0.274E-01  0.274E-01
  12.302  0.271E-01  0.271E-01
  12.312  0.265E-01  0.265E-01
  12.322  0.256E-01  0.256E-01
  12.332  0.242E-01  0.242E-01
  12.342  0.223E-01  0.223E-01
  12.352  0.199E-01  0.199E-01
  12.362  0.170E-01  0.170E-01
  12.372  0.139E-01  0.139E-01
  12.382  0.106E-01  0.106E-01
  12.392  0.748E-02  0.748E-02
  12.402  0.470E-02  0.470E-02
  12.412  0.243E-02  0.243E-02
  12.422  0.751E-03  0.751E-03
  12.432 -0.361E-03 -0.361E-03
  12.442 -0.986E-03 -0.986E-03
  12.452 -0.125E-02 -0.125E-02
  12.462 -0.127E-02 -0.127E-02
  12.472 -0.115E-02 -0.115E-02
  12.482 -0.985E-03 -0.985E-03
  12.492 -0.801E-03 -0.801E-03
  12.502 -0.616E-03 -0.616E-03
  12.512 -0.432E-03 -0.432E-03
  12.522 -0.241E-03 -0.241E-03
  12.532 -0.408E-04 -0.408E-04
  12.542  0.168E-03  0.168E-03
  12.552  0.378E-03  0.378E-03
  12.562  0.576E-03  0.576E-03
  12.572  0.745E-03  0.745E-03
  12.582  0.871E-03  0.871E-03
  12.592  0.939E-03  0.939E-03
  12.602  0.945E-03  0.945E-03
  12.612  0.889E-03  0.889E-03
  12.622  0.783E-03  0.783E-03
  12.632  0.643E-03  0.643E-03
  12.642  0.489E-03  0.489E-03
  12.652  0.342E-03  0.342E-03
  12.662  0.215E-03  0.215E-03
  12.672  0.118E-03  0.118E-03
  12.682  0.514E-04  0.514E-04
  12.692  0.123E-04  0.123E-04
  12.702 -0.547E-05 -0.547E-05
  12.712 -0.861E-05 -0.861E-05
  12.722 -0.237E-05 -0.237E-05
  12.732  0.988E-05  0.988E-05
  12.742  0.265E-04  0.265E-04
  12.752  0.465E-04  0.465E-04
  12.762  0.691E-04  0.691E-04
  12.772  0.928E-04  0.928E-04
  12.782  0.115E-03  0.115E-03
  12.792  0.133E-03  0.133E-03
  12.802  0.144E-03  0.144E-03
  12.812  0.147E-03  0.147E-03
  12.822  0.140E-03  0.140E-03
  12.832  0.126E-03  0.126E-03
  12.842  0.107E-03  0.107E-03
  12.852  0.850E-04  0.850E-04
  12.862  0.641E-04  0.641E-04
  12.872  0.464E-04  0.464E-04
  12.882  0.329E-04  0.329E-04
  12.892  0.238E-04  0.238E-04
  12.902  0.180E-04  0.180E-04
  12.912  0.145E-04  0.145E-04
  12.922  0.118E-04  0.118E-04
  12.932  0.920E-05  0.920E-05
  12.942  0.630E-05  0.630E-05
  12.952  0.318E-05  0.318E-05
  12.962  0.166E-06  0.166E-06
  12.972 -0.236E-05 -0.236E-05
  12.982 -0.411E-05 -0.411E-05
  12.992 -0.501E-05 -0.501E-05
  13.002 -0.514E-05 -0.514E-05
  13.012 -0.469E-05 -0.469E-05
  13.022 -0.392E-05 -0.392E-05
  13.032 -0.303E-05 -0.303E-05
  13.042 -0.220E-05 -0.220E-05
  13.052 -0.149E-05 -0.149E-05
  13.062 -0.959E-06 -0.959E-06
  13.072 -0.583E-06 -0.583E-06
  13.082 -0.336E-06 -0.336E-06
  13.092 -0.184E-06 -0.184E-06
  13.102 -0.961E-07 -0.961E-07
  13.112 -0.478E-07 -0.478E-07
  13.122 -0.227E-07 -0.227E-07
  13.132 -0.103E-07 -0.103E-07
  13.142 -0.447E-08 -0.447E-08
  13.152 -0.186E-08 -0.186E-08
  13.162 -0.748E-09 -0.748E-09
  13.172 -0.290E-09 -0.290E-09
