# E (eV)   ldos(E)   pdos(E)   
 -20.358  0.418E-07  0.418E-07
 -20.348  0.122E-06  0.122E-06
 -20.338  0.343E-06  0.343E-06
 -20.328  0.923E-06  0.923E-06
 -20.318  0.238E-05  0.238E-05
 -20.308  0.587E-05  0.587E-05
 -20.298  0.139E-04  0.139E-04
 -20.288  0.315E-04  0.315E-04
 -20.278  0.684E-04  0.684E-04
 -20.268  0.142E-03  0.142E-03
 -20.258  0.284E-03  0.284E-03
 -20.248  0.544E-03  0.544E-03
 -20.238  0.100E-02  0.100E-02
 -20.228  0.176E-02  0.176E-02
 -20.218  0.298E-02  0.298E-02
 -20.208  0.482E-02  0.482E-02
 -20.198  0.751E-02  0.751E-02
 -20.188  0.112E-01  0.112E-01
 -20.178  0.161E-01  0.161E-01
 -20.168  0.223E-01  0.223E-01
 -20.158  0.296E-01  0.296E-01
 -20.148  0.379E-01  0.379E-01
 -20.138  0.468E-01  0.468E-01
 -20.128  0.559E-01  0.559E-01
 -20.118  0.644E-01  0.644E-01
 -20.108  0.720E-01  0.720E-01
 -20.098  0.783E-01  0.783E-01
 -20.088  0.830E-01  0.830E-01
 -20.078  0.861E-01  0.861E-01
 -20.068  0.879E-01  0.879E-01
 -20.058  0.886E-01  0.886E-01
 -20.048  0.887E-01  0.887E-01
 -20.038  0.888E-01  0.888E-01
 -20.028  0.893E-01  0.893E-01
 -20.018  0.905E-01  0.905E-01
 -20.008  0.929E-01  0.929E-01
 -19.998  0.964E-01  0.964E-01
 -19.988  0.101E+00  0.101E+00
 -19.978  0.107E+00  0.107E+00
 -19.968  0.114E+00  0.114E+00
 -19.958  0.121E+00  0.121E+00
 -19.948  0.127E+00  0.127E+00
 -19.938  0.134E+00  0.134E+00
 -19.928  0.139E+00  0.139E+00
 -19.918  0.143E+00  0.143E+00
 -19.908  0.146E+00  0.146E+00
 -19.898  0.147E+00  0.147E+00
 -19.888  0.148E+00  0.148E+00
 -19.878  0.147E+00  0.147E+00
 -19.868  0.146E+00  0.146E+00
 -19.858  0.144E+00  0.144E+00
 -19.848  0.143E+00  0.143E+00
 -19.838  0.142E+00  0.142E+00
 -19.828  0.141E+00  0.141E+00
 -19.818  0.140E+00  0.140E+00
 -19.808  0.139E+00  0.139E+00
 -19.798  0.138E+00  0.138E+00
 -19.788  0.138E+00  0.138E+00
 -19.778  0.137E+00  0.137E+00
 -19.768  0.136E+00  0.136E+00
 -19.758  0.136E+00  0.136E+00
 -19.748  0.136E+00  0.136E+00
 -19.738  0.136E+00  0.136E+00
 -19.728  0.136E+00  0.136E+00
 -19.718  0.135E+00  0.135E+00
 -19.708  0.135E+00  0.135E+00
 -19.698  0.134E+00  0.134E+00
 -19.688  0.133E+00  0.133E+00
 -19.678  0.132E+00  0.132E+00
 -19.668  0.132E+00  0.132E+00
 -19.658  0.132E+00  0.132E+00
 -19.648  0.132E+00  0.132E+00
 -19.638  0.133E+00  0.133E+00
 -19.628  0.133E+00  0.133E+00
 -19.618  0.132E+00  0.132E+00
 -19.608  0.131E+00  0.131E+00
 -19.598  0.130E+00  0.130E+00
 -19.588  0.129E+00  0.129E+00
 -19.578  0.128E+00  0.128E+00
 -19.568  0.128E+00  0.128E+00
 -19.558  0.128E+00  0.128E+00
 -19.548  0.129E+00  0.129E+00
 -19.538  0.130E+00  0.130E+00
 -19.528  0.130E+00  0.130E+00
 -19.518  0.130E+00  0.130E+00
 -19.508  0.129E+00  0.129E+00
 -19.498  0.127E+00  0.127E+00
 -19.488  0.126E+00  0.126E+00
 -19.478  0.124E+00  0.124E+00
 -19.468  0.124E+00  0.124E+00
 -19.458  0.124E+00  0.124E+00
 -19.448  0.125E+00  0.125E+00
 -19.438  0.125E+00  0.125E+00
 -19.428  0.126E+00  0.126E+00
 -19.418  0.127E+00  0.127E+00
 -19.408  0.127E+00  0.127E+00
 -19.398  0.126E+00  0.126E+00
 -19.388  0.125E+00  0.125E+00
 -19.378  0.124E+00  0.124E+00
 -19.368  0.122E+00  0.122E+00
 -19.358  0.121E+00  0.121E+00
 -19.348  0.120E+00  0.120E+00
 -19.338  0.119E+00  0.119E+00
 -19.328  0.120E+00  0.120E+00
 -19.318  0.120E+00  0.120E+00
 -19.308  0.122E+00  0.122E+00
 -19.298  0.123E+00  0.123E+00
 -19.288  0.124E+00  0.124E+00
 -19.278  0.125E+00  0.125E+00
 -19.268  0.125E+00  0.125E+00
 -19.258  0.124E+00  0.124E+00
 -19.248  0.122E+00  0.122E+00
 -19.238  0.119E+00  0.119E+00
 -19.228  0.116E+00  0.116E+00
 -19.218  0.114E+00  0.114E+00
 -19.208  0.113E+00  0.113E+00
 -19.198  0.113E+00  0.113E+00
 -19.188  0.115E+00  0.115E+00
 -19.178  0.117E+00  0.117E+00
 -19.168  0.120E+00  0.120E+00
 -19.158  0.123E+00  0.123E+00
 -19.148  0.125E+00  0.125E+00
 -19.138  0.125E+00  0.125E+00
 -19.128  0.124E+00  0.124E+00
 -19.118  0.121E+00  0.121E+00
 -19.108  0.118E+00  0.118E+00
 -19.098  0.113E+00  0.113E+00
 -19.088  0.109E+00  0.109E+00
 -19.078  0.107E+00  0.107E+00
 -19.068  0.106E+00  0.106E+00
 -19.058  0.107E+00  0.107E+00
 -19.048  0.110E+00  0.110E+00
 -19.038  0.115E+00  0.115E+00
 -19.028  0.120E+00  0.120E+00
 -19.018  0.124E+00  0.124E+00
 -19.008  0.126E+00  0.126E+00
 -18.998  0.127E+00  0.127E+00
 -18.988  0.125E+00  0.125E+00
 -18.978  0.121E+00  0.121E+00
 -18.968  0.115E+00  0.115E+00
 -18.958  0.109E+00  0.109E+00
 -18.948  0.104E+00  0.104E+00
 -18.938  0.101E+00  0.101E+00
 -18.928  0.993E-01  0.993E-01
 -18.918  0.100E+00  0.100E+00
 -18.908  0.104E+00  0.104E+00
 -18.898  0.109E+00  0.109E+00
 -18.888  0.115E+00  0.115E+00
 -18.878  0.120E+00  0.120E+00
 -18.868  0.125E+00  0.125E+00
 -18.858  0.128E+00  0.128E+00
 -18.848  0.127E+00  0.127E+00
 -18.838  0.124E+00  0.124E+00
 -18.828  0.119E+00  0.119E+00
 -18.818  0.112E+00  0.112E+00
 -18.808  0.105E+00  0.105E+00
 -18.798  0.990E-01  0.990E-01
 -18.788  0.947E-01  0.947E-01
 -18.778  0.931E-01  0.931E-01
 -18.768  0.943E-01  0.943E-01
 -18.758  0.980E-01  0.980E-01
 -18.748  0.104E+00  0.104E+00
 -18.738  0.110E+00  0.110E+00
 -18.728  0.117E+00  0.117E+00
 -18.718  0.122E+00  0.122E+00
 -18.708  0.126E+00  0.126E+00
 -18.698  0.127E+00  0.127E+00
 -18.688  0.126E+00  0.126E+00
 -18.678  0.122E+00  0.122E+00
 -18.668  0.116E+00  0.116E+00
 -18.658  0.109E+00  0.109E+00
 -18.648  0.101E+00  0.101E+00
 -18.638  0.950E-01  0.950E-01
 -18.628  0.904E-01  0.904E-01
 -18.618  0.884E-01  0.884E-01
 -18.608  0.891E-01  0.891E-01
 -18.598  0.926E-01  0.926E-01
 -18.588  0.983E-01  0.983E-01
 -18.578  0.105E+00  0.105E+00
 -18.568  0.113E+00  0.113E+00
 -18.558  0.120E+00  0.120E+00
 -18.548  0.124E+00  0.124E+00
 -18.538  0.127E+00  0.127E+00
 -18.528  0.126E+00  0.126E+00
 -18.518  0.123E+00  0.123E+00
 -18.508  0.117E+00  0.117E+00
 -18.498  0.110E+00  0.110E+00
 -18.488  0.103E+00  0.103E+00
 -18.478  0.964E-01  0.964E-01
 -18.468  0.909E-01  0.909E-01
 -18.458  0.873E-01  0.873E-01
 -18.448  0.858E-01  0.858E-01
 -18.438  0.867E-01  0.867E-01
 -18.428  0.898E-01  0.898E-01
 -18.418  0.948E-01  0.948E-01
 -18.408  0.101E+00  0.101E+00
 -18.398  0.108E+00  0.108E+00
 -18.388  0.115E+00  0.115E+00
 -18.378  0.120E+00  0.120E+00
 -18.368  0.124E+00  0.124E+00
 -18.358  0.125E+00  0.125E+00
 -18.348  0.123E+00  0.123E+00
 -18.338  0.119E+00  0.119E+00
 -18.328  0.113E+00  0.113E+00
 -18.318  0.106E+00  0.106E+00
 -18.308  0.984E-01  0.984E-01
 -18.298  0.919E-01  0.919E-01
 -18.288  0.868E-01  0.868E-01
 -18.278  0.838E-01  0.838E-01
 -18.268  0.830E-01  0.830E-01
 -18.258  0.845E-01  0.845E-01
 -18.248  0.880E-01  0.880E-01
 -18.238  0.932E-01  0.932E-01
 -18.228  0.993E-01  0.993E-01
 -18.218  0.106E+00  0.106E+00
 -18.208  0.112E+00  0.112E+00
 -18.198  0.117E+00  0.117E+00
 -18.188  0.120E+00  0.120E+00
 -18.178  0.121E+00  0.121E+00
 -18.168  0.120E+00  0.120E+00
 -18.158  0.117E+00  0.117E+00
 -18.148  0.113E+00  0.113E+00
 -18.138  0.107E+00  0.107E+00
 -18.128  0.101E+00  0.101E+00
 -18.118  0.948E-01  0.948E-01
 -18.108  0.895E-01  0.895E-01
 -18.098  0.854E-01  0.854E-01
 -18.088  0.827E-01  0.827E-01
 -18.078  0.819E-01  0.819E-01
 -18.068  0.829E-01  0.829E-01
 -18.058  0.858E-01  0.858E-01
 -18.048  0.904E-01  0.904E-01
 -18.038  0.961E-01  0.961E-01
 -18.028  0.103E+00  0.103E+00
 -18.018  0.109E+00  0.109E+00
 -18.008  0.114E+00  0.114E+00
 -17.998  0.118E+00  0.118E+00
 -17.988  0.119E+00  0.119E+00
 -17.978  0.118E+00  0.118E+00
 -17.968  0.115E+00  0.115E+00
 -17.958  0.111E+00  0.111E+00
 -17.948  0.106E+00  0.106E+00
 -17.938  0.997E-01  0.997E-01
 -17.928  0.941E-01  0.941E-01
 -17.918  0.894E-01  0.894E-01
 -17.908  0.859E-01  0.859E-01
 -17.898  0.838E-01  0.838E-01
 -17.888  0.831E-01  0.831E-01
 -17.878  0.836E-01  0.836E-01
 -17.868  0.852E-01  0.852E-01
 -17.858  0.876E-01  0.876E-01
 -17.848  0.908E-01  0.908E-01
 -17.838  0.945E-01  0.945E-01
 -17.828  0.987E-01  0.987E-01
 -17.818  0.103E+00  0.103E+00
 -17.808  0.108E+00  0.108E+00
 -17.798  0.111E+00  0.111E+00
 -17.788  0.114E+00  0.114E+00
 -17.778  0.115E+00  0.115E+00
 -17.768  0.115E+00  0.115E+00
 -17.758  0.112E+00  0.112E+00
 -17.748  0.108E+00  0.108E+00
 -17.738  0.102E+00  0.102E+00
 -17.728  0.956E-01  0.956E-01
 -17.718  0.896E-01  0.896E-01
 -17.708  0.846E-01  0.846E-01
 -17.698  0.812E-01  0.812E-01
 -17.688  0.798E-01  0.798E-01
 -17.678  0.803E-01  0.803E-01
 -17.668  0.825E-01  0.825E-01
 -17.658  0.859E-01  0.859E-01
 -17.648  0.900E-01  0.900E-01
 -17.638  0.941E-01  0.941E-01
 -17.628  0.978E-01  0.978E-01
 -17.618  0.101E+00  0.101E+00
 -17.608  0.103E+00  0.103E+00
 -17.598  0.104E+00  0.104E+00
 -17.588  0.105E+00  0.105E+00
 -17.578  0.106E+00  0.106E+00
 -17.568  0.107E+00  0.107E+00
 -17.558  0.107E+00  0.107E+00
 -17.548  0.107E+00  0.107E+00
 -17.538  0.106E+00  0.106E+00
 -17.528  0.103E+00  0.103E+00
 -17.518  0.994E-01  0.994E-01
 -17.508  0.948E-01  0.948E-01
 -17.498  0.897E-01  0.897E-01
 -17.488  0.850E-01  0.850E-01
 -17.478  0.812E-01  0.812E-01
 -17.468  0.789E-01  0.789E-01
 -17.458  0.784E-01  0.784E-01
 -17.448  0.798E-01  0.798E-01
 -17.438  0.829E-01  0.829E-01
 -17.428  0.872E-01  0.872E-01
 -17.418  0.922E-01  0.922E-01
 -17.408  0.971E-01  0.971E-01
 -17.398  0.101E+00  0.101E+00
 -17.388  0.104E+00  0.104E+00
 -17.378  0.106E+00  0.106E+00
 -17.368  0.106E+00  0.106E+00
 -17.358  0.105E+00  0.105E+00
 -17.348  0.104E+00  0.104E+00
 -17.338  0.102E+00  0.102E+00
 -17.328  0.996E-01  0.996E-01
 -17.318  0.977E-01  0.977E-01
 -17.308  0.960E-01  0.960E-01
 -17.298  0.944E-01  0.944E-01
 -17.288  0.928E-01  0.928E-01
 -17.278  0.910E-01  0.910E-01
 -17.268  0.891E-01  0.891E-01
 -17.258  0.871E-01  0.871E-01
 -17.248  0.853E-01  0.853E-01
 -17.238  0.839E-01  0.839E-01
 -17.228  0.830E-01  0.830E-01
 -17.218  0.830E-01  0.830E-01
 -17.208  0.837E-01  0.837E-01
 -17.198  0.854E-01  0.854E-01
 -17.188  0.878E-01  0.878E-01
 -17.178  0.909E-01  0.909E-01
 -17.168  0.945E-01  0.945E-01
 -17.158  0.982E-01  0.982E-01
 -17.148  0.102E+00  0.102E+00
 -17.138  0.104E+00  0.104E+00
 -17.128  0.106E+00  0.106E+00
 -17.118  0.106E+00  0.106E+00
 -17.108  0.105E+00  0.105E+00
 -17.098  0.102E+00  0.102E+00
 -17.088  0.982E-01  0.982E-01
 -17.078  0.937E-01  0.937E-01
 -17.068  0.894E-01  0.894E-01
 -17.058  0.858E-01  0.858E-01
 -17.048  0.834E-01  0.834E-01
 -17.038  0.825E-01  0.825E-01
 -17.028  0.829E-01  0.829E-01
 -17.018  0.843E-01  0.843E-01
 -17.008  0.863E-01  0.863E-01
 -16.998  0.883E-01  0.883E-01
 -16.988  0.900E-01  0.900E-01
 -16.978  0.910E-01  0.910E-01
 -16.968  0.911E-01  0.911E-01
 -16.958  0.906E-01  0.906E-01
 -16.948  0.897E-01  0.897E-01
 -16.938  0.889E-01  0.889E-01
 -16.928  0.887E-01  0.887E-01
 -16.918  0.894E-01  0.894E-01
 -16.908  0.913E-01  0.913E-01
 -16.898  0.943E-01  0.943E-01
 -16.888  0.978E-01  0.978E-01
 -16.878  0.101E+00  0.101E+00
 -16.868  0.104E+00  0.104E+00
 -16.858  0.105E+00  0.105E+00
 -16.848  0.104E+00  0.104E+00
 -16.838  0.100E+00  0.100E+00
 -16.828  0.954E-01  0.954E-01
 -16.818  0.897E-01  0.897E-01
 -16.808  0.841E-01  0.841E-01
 -16.798  0.796E-01  0.796E-01
 -16.788  0.770E-01  0.770E-01
 -16.778  0.766E-01  0.766E-01
 -16.768  0.784E-01  0.784E-01
 -16.758  0.819E-01  0.819E-01
 -16.748  0.863E-01  0.863E-01
 -16.738  0.907E-01  0.907E-01
 -16.728  0.942E-01  0.942E-01
 -16.718  0.963E-01  0.963E-01
 -16.708  0.966E-01  0.966E-01
 -16.698  0.954E-01  0.954E-01
 -16.688  0.932E-01  0.932E-01
 -16.678  0.906E-01  0.906E-01
 -16.668  0.884E-01  0.884E-01
 -16.658  0.873E-01  0.873E-01
 -16.648  0.875E-01  0.875E-01
 -16.638  0.891E-01  0.891E-01
 -16.628  0.917E-01  0.917E-01
 -16.618  0.946E-01  0.946E-01
 -16.608  0.973E-01  0.973E-01
 -16.598  0.991E-01  0.991E-01
 -16.588  0.995E-01  0.995E-01
 -16.578  0.983E-01  0.983E-01
 -16.568  0.957E-01  0.957E-01
 -16.558  0.919E-01  0.919E-01
 -16.548  0.877E-01  0.877E-01
 -16.538  0.837E-01  0.837E-01
 -16.528  0.805E-01  0.805E-01
 -16.518  0.787E-01  0.787E-01
 -16.508  0.784E-01  0.784E-01
 -16.498  0.797E-01  0.797E-01
 -16.488  0.823E-01  0.823E-01
 -16.478  0.855E-01  0.855E-01
 -16.468  0.889E-01  0.889E-01
 -16.458  0.918E-01  0.918E-01
 -16.448  0.939E-01  0.939E-01
 -16.438  0.950E-01  0.950E-01
 -16.428  0.950E-01  0.950E-01
 -16.418  0.942E-01  0.942E-01
 -16.408  0.929E-01  0.929E-01
 -16.398  0.917E-01  0.917E-01
 -16.388  0.907E-01  0.907E-01
 -16.378  0.901E-01  0.901E-01
 -16.368  0.899E-01  0.899E-01
 -16.358  0.900E-01  0.900E-01
 -16.348  0.902E-01  0.902E-01
 -16.338  0.904E-01  0.904E-01
 -16.328  0.906E-01  0.906E-01
 -16.318  0.907E-01  0.907E-01
 -16.308  0.908E-01  0.908E-01
 -16.298  0.909E-01  0.909E-01
 -16.288  0.908E-01  0.908E-01
 -16.278  0.906E-01  0.906E-01
 -16.268  0.901E-01  0.901E-01
 -16.258  0.892E-01  0.892E-01
 -16.248  0.880E-01  0.880E-01
 -16.238  0.864E-01  0.864E-01
 -16.228  0.847E-01  0.847E-01
 -16.218  0.832E-01  0.832E-01
 -16.208  0.822E-01  0.822E-01
 -16.198  0.819E-01  0.819E-01
 -16.188  0.826E-01  0.826E-01
 -16.178  0.842E-01  0.842E-01
 -16.168  0.867E-01  0.867E-01
 -16.158  0.896E-01  0.896E-01
 -16.148  0.927E-01  0.927E-01
 -16.138  0.953E-01  0.953E-01
 -16.128  0.971E-01  0.971E-01
 -16.118  0.978E-01  0.978E-01
 -16.108  0.974E-01  0.974E-01
 -16.098  0.960E-01  0.960E-01
 -16.088  0.937E-01  0.937E-01
 -16.078  0.909E-01  0.909E-01
 -16.068  0.880E-01  0.880E-01
 -16.058  0.855E-01  0.855E-01
 -16.048  0.838E-01  0.838E-01
 -16.038  0.831E-01  0.831E-01
 -16.028  0.838E-01  0.838E-01
 -16.018  0.857E-01  0.857E-01
 -16.008  0.884E-01  0.884E-01
 -15.998  0.914E-01  0.914E-01
 -15.988  0.941E-01  0.941E-01
 -15.978  0.957E-01  0.957E-01
 -15.968  0.958E-01  0.958E-01
 -15.958  0.941E-01  0.941E-01
 -15.948  0.909E-01  0.909E-01
 -15.938  0.867E-01  0.867E-01
 -15.928  0.824E-01  0.824E-01
 -15.918  0.788E-01  0.788E-01
 -15.908  0.768E-01  0.768E-01
 -15.898  0.769E-01  0.769E-01
 -15.888  0.793E-01  0.793E-01
 -15.878  0.835E-01  0.835E-01
 -15.868  0.889E-01  0.889E-01
 -15.858  0.945E-01  0.945E-01
 -15.848  0.993E-01  0.993E-01
 -15.838  0.102E+00  0.102E+00
 -15.828  0.103E+00  0.103E+00
 -15.818  0.102E+00  0.102E+00
 -15.808  0.991E-01  0.991E-01
 -15.798  0.949E-01  0.949E-01
 -15.788  0.905E-01  0.905E-01
 -15.778  0.864E-01  0.864E-01
 -15.768  0.834E-01  0.834E-01
 -15.758  0.819E-01  0.819E-01
 -15.748  0.820E-01  0.820E-01
 -15.738  0.836E-01  0.836E-01
 -15.728  0.862E-01  0.862E-01
 -15.718  0.895E-01  0.895E-01
 -15.708  0.928E-01  0.928E-01
 -15.698  0.954E-01  0.954E-01
 -15.688  0.968E-01  0.968E-01
 -15.678  0.967E-01  0.967E-01
 -15.668  0.950E-01  0.950E-01
 -15.658  0.918E-01  0.918E-01
 -15.648  0.877E-01  0.877E-01
 -15.638  0.835E-01  0.835E-01
 -15.628  0.800E-01  0.800E-01
 -15.618  0.781E-01  0.781E-01
 -15.608  0.783E-01  0.783E-01
 -15.598  0.806E-01  0.806E-01
 -15.588  0.849E-01  0.849E-01
 -15.578  0.905E-01  0.905E-01
 -15.568  0.962E-01  0.962E-01
 -15.558  0.101E+00  0.101E+00
 -15.548  0.104E+00  0.104E+00
 -15.538  0.105E+00  0.105E+00
 -15.528  0.104E+00  0.104E+00
 -15.518  0.101E+00  0.101E+00
 -15.508  0.974E-01  0.974E-01
 -15.498  0.934E-01  0.934E-01
 -15.488  0.900E-01  0.900E-01
 -15.478  0.878E-01  0.878E-01
 -15.468  0.869E-01  0.869E-01
 -15.458  0.872E-01  0.872E-01
 -15.448  0.885E-01  0.885E-01
 -15.438  0.901E-01  0.901E-01
 -15.428  0.919E-01  0.919E-01
 -15.418  0.934E-01  0.934E-01
 -15.408  0.944E-01  0.944E-01
 -15.398  0.948E-01  0.948E-01
 -15.388  0.945E-01  0.945E-01
 -15.378  0.936E-01  0.936E-01
 -15.368  0.920E-01  0.920E-01
 -15.358  0.902E-01  0.902E-01
 -15.348  0.883E-01  0.883E-01
 -15.338  0.867E-01  0.867E-01
 -15.328  0.860E-01  0.860E-01
 -15.318  0.866E-01  0.866E-01
 -15.308  0.886E-01  0.886E-01
 -15.298  0.919E-01  0.919E-01
 -15.288  0.961E-01  0.961E-01
 -15.278  0.101E+00  0.101E+00
 -15.268  0.105E+00  0.105E+00
 -15.258  0.107E+00  0.107E+00
 -15.248  0.108E+00  0.108E+00
 -15.238  0.108E+00  0.108E+00
 -15.228  0.106E+00  0.106E+00
 -15.218  0.103E+00  0.103E+00
 -15.208  0.100E+00  0.100E+00
 -15.198  0.982E-01  0.982E-01
 -15.188  0.969E-01  0.969E-01
 -15.178  0.967E-01  0.967E-01
 -15.168  0.974E-01  0.974E-01
 -15.158  0.985E-01  0.985E-01
 -15.148  0.997E-01  0.997E-01
 -15.138  0.101E+00  0.101E+00
 -15.128  0.101E+00  0.101E+00
 -15.118  0.101E+00  0.101E+00
 -15.108  0.100E+00  0.100E+00
 -15.098  0.995E-01  0.995E-01
 -15.088  0.984E-01  0.984E-01
 -15.078  0.975E-01  0.975E-01
 -15.068  0.970E-01  0.970E-01
 -15.058  0.971E-01  0.971E-01
 -15.048  0.982E-01  0.982E-01
 -15.038  0.101E+00  0.101E+00
 -15.028  0.104E+00  0.104E+00
 -15.018  0.109E+00  0.109E+00
 -15.008  0.114E+00  0.114E+00
 -14.998  0.119E+00  0.119E+00
 -14.988  0.124E+00  0.124E+00
 -14.978  0.127E+00  0.127E+00
 -14.968  0.128E+00  0.128E+00
 -14.958  0.129E+00  0.129E+00
 -14.948  0.129E+00  0.129E+00
 -14.938  0.129E+00  0.129E+00
 -14.928  0.129E+00  0.129E+00
 -14.918  0.131E+00  0.131E+00
 -14.908  0.135E+00  0.135E+00
 -14.898  0.138E+00  0.138E+00
 -14.888  0.142E+00  0.142E+00
 -14.878  0.145E+00  0.145E+00
 -14.868  0.147E+00  0.147E+00
 -14.858  0.147E+00  0.147E+00
 -14.848  0.144E+00  0.144E+00
 -14.838  0.140E+00  0.140E+00
 -14.828  0.135E+00  0.135E+00
 -14.818  0.129E+00  0.129E+00
 -14.808  0.123E+00  0.123E+00
 -14.798  0.117E+00  0.117E+00
 -14.788  0.112E+00  0.112E+00
 -14.778  0.109E+00  0.109E+00
 -14.768  0.106E+00  0.106E+00
 -14.758  0.105E+00  0.105E+00
 -14.748  0.104E+00  0.104E+00
 -14.738  0.105E+00  0.105E+00
 -14.728  0.106E+00  0.106E+00
 -14.718  0.106E+00  0.106E+00
 -14.708  0.105E+00  0.105E+00
 -14.698  0.103E+00  0.103E+00
 -14.688  0.100E+00  0.100E+00
 -14.678  0.958E-01  0.958E-01
 -14.668  0.912E-01  0.912E-01
 -14.658  0.869E-01  0.869E-01
 -14.648  0.838E-01  0.838E-01
 -14.638  0.821E-01  0.821E-01
 -14.628  0.819E-01  0.819E-01
 -14.618  0.827E-01  0.827E-01
 -14.608  0.839E-01  0.839E-01
 -14.598  0.847E-01  0.847E-01
 -14.588  0.845E-01  0.845E-01
 -14.578  0.828E-01  0.828E-01
 -14.568  0.795E-01  0.795E-01
 -14.558  0.746E-01  0.746E-01
 -14.548  0.687E-01  0.687E-01
 -14.538  0.624E-01  0.624E-01
 -14.528  0.565E-01  0.565E-01
 -14.518  0.515E-01  0.515E-01
 -14.508  0.481E-01  0.481E-01
 -14.498  0.465E-01  0.465E-01
 -14.488  0.469E-01  0.469E-01
 -14.478  0.491E-01  0.491E-01
 -14.468  0.528E-01  0.528E-01
 -14.458  0.575E-01  0.575E-01
 -14.448  0.627E-01  0.627E-01
 -14.438  0.678E-01  0.678E-01
 -14.428  0.723E-01  0.723E-01
 -14.418  0.756E-01  0.756E-01
 -14.408  0.775E-01  0.775E-01
 -14.398  0.777E-01  0.777E-01
 -14.388  0.763E-01  0.763E-01
 -14.378  0.736E-01  0.736E-01
 -14.368  0.699E-01  0.699E-01
 -14.358  0.657E-01  0.657E-01
 -14.348  0.616E-01  0.616E-01
 -14.338  0.578E-01  0.578E-01
 -14.328  0.545E-01  0.545E-01
 -14.318  0.515E-01  0.515E-01
 -14.308  0.487E-01  0.487E-01
 -14.298  0.456E-01  0.456E-01
 -14.288  0.420E-01  0.420E-01
 -14.278  0.379E-01  0.379E-01
 -14.268  0.337E-01  0.337E-01
 -14.258  0.297E-01  0.297E-01
 -14.248  0.267E-01  0.267E-01
 -14.238  0.253E-01  0.253E-01
 -14.228  0.261E-01  0.261E-01
 -14.218  0.292E-01  0.292E-01
 -14.208  0.345E-01  0.345E-01
 -14.198  0.413E-01  0.413E-01
 -14.188  0.487E-01  0.487E-01
 -14.178  0.557E-01  0.557E-01
 -14.168  0.613E-01  0.613E-01
 -14.158  0.645E-01  0.645E-01
 -14.148  0.651E-01  0.651E-01
 -14.138  0.630E-01  0.630E-01
 -14.128  0.589E-01  0.589E-01
 -14.118  0.535E-01  0.535E-01
 -14.108  0.478E-01  0.478E-01
 -14.098  0.428E-01  0.428E-01
 -14.088  0.390E-01  0.390E-01
 -14.078  0.364E-01  0.364E-01
 -14.068  0.349E-01  0.349E-01
 -14.058  0.339E-01  0.339E-01
 -14.048  0.328E-01  0.328E-01
 -14.038  0.311E-01  0.311E-01
 -14.028  0.288E-01  0.288E-01
 -14.018  0.259E-01  0.259E-01
 -14.008  0.230E-01  0.230E-01
 -13.998  0.205E-01  0.205E-01
 -13.988  0.191E-01  0.191E-01
 -13.978  0.191E-01  0.191E-01
 -13.968  0.205E-01  0.205E-01
 -13.958  0.232E-01  0.232E-01
 -13.948  0.270E-01  0.270E-01
 -13.938  0.312E-01  0.312E-01
 -13.928  0.354E-01  0.354E-01
 -13.918  0.391E-01  0.391E-01
 -13.908  0.420E-01  0.420E-01
 -13.898  0.436E-01  0.436E-01
 -13.888  0.439E-01  0.439E-01
 -13.878  0.430E-01  0.430E-01
 -13.868  0.412E-01  0.412E-01
 -13.858  0.389E-01  0.389E-01
 -13.848  0.367E-01  0.367E-01
 -13.838  0.350E-01  0.350E-01
 -13.828  0.341E-01  0.341E-01
 -13.818  0.342E-01  0.342E-01
 -13.808  0.352E-01  0.352E-01
 -13.798  0.365E-01  0.365E-01
 -13.788  0.379E-01  0.379E-01
 -13.778  0.391E-01  0.391E-01
 -13.768  0.397E-01  0.397E-01
 -13.758  0.399E-01  0.399E-01
 -13.748  0.399E-01  0.399E-01
 -13.738  0.400E-01  0.400E-01
 -13.728  0.406E-01  0.406E-01
 -13.718  0.417E-01  0.417E-01
 -13.708  0.435E-01  0.435E-01
 -13.698  0.459E-01  0.459E-01
 -13.688  0.485E-01  0.485E-01
 -13.678  0.510E-01  0.510E-01
 -13.668  0.532E-01  0.532E-01
 -13.658  0.548E-01  0.548E-01
 -13.648  0.557E-01  0.557E-01
 -13.638  0.559E-01  0.559E-01
 -13.628  0.555E-01  0.555E-01
 -13.618  0.547E-01  0.547E-01
 -13.608  0.535E-01  0.535E-01
 -13.598  0.523E-01  0.523E-01
 -13.588  0.510E-01  0.510E-01
 -13.578  0.499E-01  0.499E-01
 -13.568  0.488E-01  0.488E-01
 -13.558  0.477E-01  0.477E-01
 -13.548  0.466E-01  0.466E-01
 -13.538  0.454E-01  0.454E-01
 -13.528  0.442E-01  0.442E-01
 -13.518  0.431E-01  0.431E-01
 -13.508  0.421E-01  0.421E-01
 -13.498  0.417E-01  0.417E-01
 -13.488  0.417E-01  0.417E-01
 -13.478  0.425E-01  0.425E-01
 -13.468  0.438E-01  0.438E-01
 -13.458  0.456E-01  0.456E-01
 -13.448  0.476E-01  0.476E-01
 -13.438  0.496E-01  0.496E-01
 -13.428  0.513E-01  0.513E-01
 -13.418  0.524E-01  0.524E-01
 -13.408  0.529E-01  0.529E-01
 -13.398  0.525E-01  0.525E-01
 -13.388  0.514E-01  0.514E-01
 -13.378  0.498E-01  0.498E-01
 -13.368  0.478E-01  0.478E-01
 -13.358  0.460E-01  0.460E-01
 -13.348  0.445E-01  0.445E-01
 -13.338  0.436E-01  0.436E-01
 -13.328  0.436E-01  0.436E-01
 -13.318  0.443E-01  0.443E-01
 -13.308  0.455E-01  0.455E-01
 -13.298  0.469E-01  0.469E-01
 -13.288  0.482E-01  0.482E-01
 -13.278  0.489E-01  0.489E-01
 -13.268  0.491E-01  0.491E-01
 -13.258  0.485E-01  0.485E-01
 -13.248  0.474E-01  0.474E-01
 -13.238  0.460E-01  0.460E-01
 -13.228  0.447E-01  0.447E-01
 -13.218  0.436E-01  0.436E-01
 -13.208  0.431E-01  0.431E-01
 -13.198  0.433E-01  0.433E-01
 -13.188  0.442E-01  0.442E-01
 -13.178  0.456E-01  0.456E-01
 -13.168  0.473E-01  0.473E-01
 -13.158  0.492E-01  0.492E-01
 -13.148  0.511E-01  0.511E-01
 -13.138  0.527E-01  0.527E-01
 -13.128  0.542E-01  0.542E-01
 -13.118  0.555E-01  0.555E-01
 -13.108  0.565E-01  0.565E-01
 -13.098  0.572E-01  0.572E-01
 -13.088  0.577E-01  0.577E-01
 -13.078  0.580E-01  0.580E-01
 -13.068  0.581E-01  0.581E-01
 -13.058  0.583E-01  0.583E-01
 -13.048  0.589E-01  0.589E-01
 -13.038  0.603E-01  0.603E-01
 -13.028  0.626E-01  0.626E-01
 -13.018  0.661E-01  0.661E-01
 -13.008  0.706E-01  0.706E-01
 -12.998  0.757E-01  0.757E-01
 -12.988  0.809E-01  0.809E-01
 -12.978  0.854E-01  0.854E-01
 -12.968  0.888E-01  0.888E-01
 -12.958  0.906E-01  0.906E-01
 -12.948  0.908E-01  0.908E-01
 -12.938  0.896E-01  0.896E-01
 -12.928  0.874E-01  0.874E-01
 -12.918  0.848E-01  0.848E-01
 -12.908  0.823E-01  0.823E-01
 -12.898  0.803E-01  0.803E-01
 -12.888  0.792E-01  0.792E-01
 -12.878  0.787E-01  0.787E-01
 -12.868  0.786E-01  0.786E-01
 -12.858  0.785E-01  0.785E-01
 -12.848  0.780E-01  0.780E-01
 -12.838  0.770E-01  0.770E-01
 -12.828  0.752E-01  0.752E-01
 -12.818  0.728E-01  0.728E-01
 -12.808  0.700E-01  0.700E-01
 -12.798  0.672E-01  0.672E-01
 -12.788  0.648E-01  0.648E-01
 -12.778  0.630E-01  0.630E-01
 -12.768  0.622E-01  0.622E-01
 -12.758  0.622E-01  0.622E-01
 -12.748  0.628E-01  0.628E-01
 -12.738  0.638E-01  0.638E-01
 -12.728  0.648E-01  0.648E-01
 -12.718  0.654E-01  0.654E-01
 -12.708  0.657E-01  0.657E-01
 -12.698  0.656E-01  0.656E-01
 -12.688  0.653E-01  0.653E-01
 -12.678  0.650E-01  0.650E-01
 -12.668  0.648E-01  0.648E-01
 -12.658  0.648E-01  0.648E-01
 -12.648  0.648E-01  0.648E-01
 -12.638  0.647E-01  0.647E-01
 -12.628  0.643E-01  0.643E-01
 -12.618  0.634E-01  0.634E-01
 -12.608  0.621E-01  0.621E-01
 -12.598  0.604E-01  0.604E-01
 -12.588  0.585E-01  0.585E-01
 -12.578  0.566E-01  0.566E-01
 -12.568  0.551E-01  0.551E-01
 -12.558  0.543E-01  0.543E-01
 -12.548  0.544E-01  0.544E-01
 -12.538  0.553E-01  0.553E-01
 -12.528  0.571E-01  0.571E-01
 -12.518  0.593E-01  0.593E-01
 -12.508  0.615E-01  0.615E-01
 -12.498  0.633E-01  0.633E-01
 -12.488  0.644E-01  0.644E-01
 -12.478  0.644E-01  0.644E-01
 -12.468  0.634E-01  0.634E-01
 -12.458  0.616E-01  0.616E-01
 -12.448  0.593E-01  0.593E-01
 -12.438  0.569E-01  0.569E-01
 -12.428  0.549E-01  0.549E-01
 -12.418  0.535E-01  0.535E-01
 -12.408  0.529E-01  0.529E-01
 -12.398  0.530E-01  0.530E-01
 -12.388  0.536E-01  0.536E-01
 -12.378  0.543E-01  0.543E-01
 -12.368  0.548E-01  0.548E-01
 -12.358  0.549E-01  0.549E-01
 -12.348  0.545E-01  0.545E-01
 -12.338  0.538E-01  0.538E-01
 -12.328  0.530E-01  0.530E-01
 -12.318  0.525E-01  0.525E-01
 -12.308  0.527E-01  0.527E-01
 -12.298  0.536E-01  0.536E-01
 -12.288  0.552E-01  0.552E-01
 -12.278  0.572E-01  0.572E-01
 -12.268  0.591E-01  0.591E-01
 -12.258  0.605E-01  0.605E-01
 -12.248  0.607E-01  0.607E-01
 -12.238  0.596E-01  0.596E-01
 -12.228  0.574E-01  0.574E-01
 -12.218  0.542E-01  0.542E-01
 -12.208  0.507E-01  0.507E-01
 -12.198  0.476E-01  0.476E-01
 -12.188  0.453E-01  0.453E-01
 -12.178  0.442E-01  0.442E-01
 -12.168  0.445E-01  0.445E-01
 -12.158  0.459E-01  0.459E-01
 -12.148  0.481E-01  0.481E-01
 -12.138  0.506E-01  0.506E-01
 -12.128  0.528E-01  0.528E-01
 -12.118  0.544E-01  0.544E-01
 -12.108  0.551E-01  0.551E-01
 -12.098  0.551E-01  0.551E-01
 -12.088  0.544E-01  0.544E-01
 -12.078  0.535E-01  0.535E-01
 -12.068  0.526E-01  0.526E-01
 -12.058  0.521E-01  0.521E-01
 -12.048  0.518E-01  0.518E-01
 -12.038  0.518E-01  0.518E-01
 -12.028  0.517E-01  0.517E-01
 -12.018  0.513E-01  0.513E-01
 -12.008  0.504E-01  0.504E-01
 -11.998  0.491E-01  0.491E-01
 -11.988  0.475E-01  0.475E-01
 -11.978  0.460E-01  0.460E-01
 -11.968  0.447E-01  0.447E-01
 -11.958  0.440E-01  0.440E-01
 -11.948  0.440E-01  0.440E-01
 -11.938  0.445E-01  0.445E-01
 -11.928  0.455E-01  0.455E-01
 -11.918  0.467E-01  0.467E-01
 -11.908  0.479E-01  0.479E-01
 -11.898  0.489E-01  0.489E-01
 -11.888  0.496E-01  0.496E-01
 -11.878  0.500E-01  0.500E-01
 -11.868  0.502E-01  0.502E-01
 -11.858  0.503E-01  0.503E-01
 -11.848  0.502E-01  0.502E-01
 -11.838  0.501E-01  0.501E-01
 -11.828  0.499E-01  0.499E-01
 -11.818  0.496E-01  0.496E-01
 -11.808  0.490E-01  0.490E-01
 -11.798  0.481E-01  0.481E-01
 -11.788  0.469E-01  0.469E-01
 -11.778  0.454E-01  0.454E-01
 -11.768  0.439E-01  0.439E-01
 -11.758  0.424E-01  0.424E-01
 -11.748  0.412E-01  0.412E-01
 -11.738  0.405E-01  0.405E-01
 -11.728  0.402E-01  0.402E-01
 -11.718  0.406E-01  0.406E-01
 -11.708  0.414E-01  0.414E-01
 -11.698  0.426E-01  0.426E-01
 -11.688  0.440E-01  0.440E-01
 -11.678  0.456E-01  0.456E-01
 -11.668  0.471E-01  0.471E-01
 -11.658  0.484E-01  0.484E-01
 -11.648  0.493E-01  0.493E-01
 -11.638  0.496E-01  0.496E-01
 -11.628  0.493E-01  0.493E-01
 -11.618  0.484E-01  0.484E-01
 -11.608  0.470E-01  0.470E-01
 -11.598  0.453E-01  0.453E-01
 -11.588  0.434E-01  0.434E-01
 -11.578  0.417E-01  0.417E-01
 -11.568  0.403E-01  0.403E-01
 -11.558  0.394E-01  0.394E-01
 -11.548  0.391E-01  0.391E-01
 -11.538  0.393E-01  0.393E-01
 -11.528  0.400E-01  0.400E-01
 -11.518  0.409E-01  0.409E-01
 -11.508  0.419E-01  0.419E-01
 -11.498  0.427E-01  0.427E-01
 -11.488  0.431E-01  0.431E-01
 -11.478  0.432E-01  0.432E-01
 -11.468  0.428E-01  0.428E-01
 -11.458  0.422E-01  0.422E-01
 -11.448  0.415E-01  0.415E-01
 -11.438  0.409E-01  0.409E-01
 -11.428  0.407E-01  0.407E-01
 -11.418  0.408E-01  0.408E-01
 -11.408  0.412E-01  0.412E-01
 -11.398  0.417E-01  0.417E-01
 -11.388  0.422E-01  0.422E-01
 -11.378  0.426E-01  0.426E-01
 -11.368  0.428E-01  0.428E-01
 -11.358  0.428E-01  0.428E-01
 -11.348  0.426E-01  0.426E-01
 -11.338  0.423E-01  0.423E-01
 -11.328  0.419E-01  0.419E-01
 -11.318  0.414E-01  0.414E-01
 -11.308  0.407E-01  0.407E-01
 -11.298  0.398E-01  0.398E-01
 -11.288  0.387E-01  0.387E-01
 -11.278  0.376E-01  0.376E-01
 -11.268  0.366E-01  0.366E-01
 -11.258  0.359E-01  0.359E-01
 -11.248  0.355E-01  0.355E-01
 -11.238  0.355E-01  0.355E-01
 -11.228  0.359E-01  0.359E-01
 -11.218  0.368E-01  0.368E-01
 -11.208  0.378E-01  0.378E-01
 -11.198  0.390E-01  0.390E-01
 -11.188  0.401E-01  0.401E-01
 -11.178  0.410E-01  0.410E-01
 -11.168  0.415E-01  0.415E-01
 -11.158  0.417E-01  0.417E-01
 -11.148  0.415E-01  0.415E-01
 -11.138  0.409E-01  0.409E-01
 -11.128  0.402E-01  0.402E-01
 -11.118  0.395E-01  0.395E-01
 -11.108  0.388E-01  0.388E-01
 -11.098  0.382E-01  0.382E-01
 -11.088  0.376E-01  0.376E-01
 -11.078  0.371E-01  0.371E-01
 -11.068  0.366E-01  0.366E-01
 -11.058  0.363E-01  0.363E-01
 -11.048  0.360E-01  0.360E-01
 -11.038  0.361E-01  0.361E-01
 -11.028  0.363E-01  0.363E-01
 -11.018  0.368E-01  0.368E-01
 -11.008  0.372E-01  0.372E-01
 -10.998  0.375E-01  0.375E-01
 -10.988  0.374E-01  0.374E-01
 -10.978  0.370E-01  0.370E-01
 -10.968  0.362E-01  0.362E-01
 -10.958  0.353E-01  0.353E-01
 -10.948  0.345E-01  0.345E-01
 -10.938  0.339E-01  0.339E-01
 -10.928  0.339E-01  0.339E-01
 -10.918  0.345E-01  0.345E-01
 -10.908  0.356E-01  0.356E-01
 -10.898  0.371E-01  0.371E-01
 -10.888  0.388E-01  0.388E-01
 -10.878  0.405E-01  0.405E-01
 -10.868  0.419E-01  0.419E-01
 -10.858  0.429E-01  0.429E-01
 -10.848  0.432E-01  0.432E-01
 -10.838  0.429E-01  0.429E-01
 -10.828  0.421E-01  0.421E-01
 -10.818  0.407E-01  0.407E-01
 -10.808  0.390E-01  0.390E-01
 -10.798  0.371E-01  0.371E-01
 -10.788  0.351E-01  0.351E-01
 -10.778  0.332E-01  0.332E-01
 -10.768  0.314E-01  0.314E-01
 -10.758  0.299E-01  0.299E-01
 -10.748  0.288E-01  0.288E-01
 -10.738  0.282E-01  0.282E-01
 -10.728  0.282E-01  0.282E-01
 -10.718  0.289E-01  0.289E-01
 -10.708  0.304E-01  0.304E-01
 -10.698  0.326E-01  0.326E-01
 -10.688  0.353E-01  0.353E-01
 -10.678  0.382E-01  0.382E-01
 -10.668  0.409E-01  0.409E-01
 -10.658  0.432E-01  0.432E-01
 -10.648  0.446E-01  0.446E-01
 -10.638  0.452E-01  0.452E-01
 -10.628  0.448E-01  0.448E-01
 -10.618  0.437E-01  0.437E-01
 -10.608  0.420E-01  0.420E-01
 -10.598  0.399E-01  0.399E-01
 -10.588  0.377E-01  0.377E-01
 -10.578  0.356E-01  0.356E-01
 -10.568  0.336E-01  0.336E-01
 -10.558  0.318E-01  0.318E-01
 -10.548  0.305E-01  0.305E-01
 -10.538  0.295E-01  0.295E-01
 -10.528  0.290E-01  0.290E-01
 -10.518  0.290E-01  0.290E-01
 -10.508  0.296E-01  0.296E-01
 -10.498  0.306E-01  0.306E-01
 -10.488  0.319E-01  0.319E-01
 -10.478  0.335E-01  0.335E-01
 -10.468  0.350E-01  0.350E-01
 -10.458  0.363E-01  0.363E-01
 -10.448  0.373E-01  0.373E-01
 -10.438  0.379E-01  0.379E-01
 -10.428  0.381E-01  0.381E-01
 -10.418  0.380E-01  0.380E-01
 -10.408  0.377E-01  0.377E-01
 -10.398  0.374E-01  0.374E-01
 -10.388  0.371E-01  0.371E-01
 -10.378  0.368E-01  0.368E-01
 -10.368  0.367E-01  0.367E-01
 -10.358  0.365E-01  0.365E-01
 -10.348  0.364E-01  0.364E-01
 -10.338  0.362E-01  0.362E-01
 -10.328  0.360E-01  0.360E-01
 -10.318  0.356E-01  0.356E-01
 -10.308  0.351E-01  0.351E-01
 -10.298  0.345E-01  0.345E-01
 -10.288  0.338E-01  0.338E-01
 -10.278  0.332E-01  0.332E-01
 -10.268  0.326E-01  0.326E-01
 -10.258  0.321E-01  0.321E-01
 -10.248  0.318E-01  0.318E-01
 -10.238  0.315E-01  0.315E-01
 -10.228  0.315E-01  0.315E-01
 -10.218  0.315E-01  0.315E-01
 -10.208  0.317E-01  0.317E-01
 -10.198  0.321E-01  0.321E-01
 -10.188  0.327E-01  0.327E-01
 -10.178  0.335E-01  0.335E-01
 -10.168  0.345E-01  0.345E-01
 -10.158  0.356E-01  0.356E-01
 -10.148  0.367E-01  0.367E-01
 -10.138  0.377E-01  0.377E-01
 -10.128  0.384E-01  0.384E-01
 -10.118  0.385E-01  0.385E-01
 -10.108  0.382E-01  0.382E-01
 -10.098  0.373E-01  0.373E-01
 -10.088  0.359E-01  0.359E-01
 -10.078  0.343E-01  0.343E-01
 -10.068  0.326E-01  0.326E-01
 -10.058  0.311E-01  0.311E-01
 -10.048  0.299E-01  0.299E-01
 -10.038  0.291E-01  0.291E-01
 -10.028  0.289E-01  0.289E-01
 -10.018  0.290E-01  0.290E-01
 -10.008  0.296E-01  0.296E-01
  -9.998  0.305E-01  0.305E-01
  -9.988  0.316E-01  0.316E-01
  -9.978  0.329E-01  0.329E-01
  -9.968  0.343E-01  0.343E-01
  -9.958  0.358E-01  0.358E-01
  -9.948  0.372E-01  0.372E-01
  -9.938  0.383E-01  0.383E-01
  -9.928  0.390E-01  0.390E-01
  -9.918  0.391E-01  0.391E-01
  -9.908  0.386E-01  0.386E-01
  -9.898  0.373E-01  0.373E-01
  -9.888  0.354E-01  0.354E-01
  -9.878  0.331E-01  0.331E-01
  -9.868  0.308E-01  0.308E-01
  -9.858  0.286E-01  0.286E-01
  -9.848  0.270E-01  0.270E-01
  -9.838  0.259E-01  0.259E-01
  -9.828  0.255E-01  0.255E-01
  -9.818  0.258E-01  0.258E-01
  -9.808  0.267E-01  0.267E-01
  -9.798  0.282E-01  0.282E-01
  -9.788  0.299E-01  0.299E-01
  -9.778  0.319E-01  0.319E-01
  -9.768  0.340E-01  0.340E-01
  -9.758  0.361E-01  0.361E-01
  -9.748  0.380E-01  0.380E-01
  -9.738  0.394E-01  0.394E-01
  -9.728  0.403E-01  0.403E-01
  -9.718  0.405E-01  0.405E-01
  -9.708  0.399E-01  0.399E-01
  -9.698  0.384E-01  0.384E-01
  -9.688  0.362E-01  0.362E-01
  -9.678  0.335E-01  0.335E-01
  -9.668  0.305E-01  0.305E-01
  -9.658  0.276E-01  0.276E-01
  -9.648  0.251E-01  0.251E-01
  -9.638  0.233E-01  0.233E-01
  -9.628  0.223E-01  0.223E-01
  -9.618  0.223E-01  0.223E-01
  -9.608  0.233E-01  0.233E-01
  -9.598  0.253E-01  0.253E-01
  -9.588  0.279E-01  0.279E-01
  -9.578  0.310E-01  0.310E-01
  -9.568  0.342E-01  0.342E-01
  -9.558  0.372E-01  0.372E-01
  -9.548  0.397E-01  0.397E-01
  -9.538  0.414E-01  0.414E-01
  -9.528  0.421E-01  0.421E-01
  -9.518  0.418E-01  0.418E-01
  -9.508  0.406E-01  0.406E-01
  -9.498  0.385E-01  0.385E-01
  -9.488  0.359E-01  0.359E-01
  -9.478  0.328E-01  0.328E-01
  -9.468  0.296E-01  0.296E-01
  -9.458  0.265E-01  0.265E-01
  -9.448  0.236E-01  0.236E-01
  -9.438  0.213E-01  0.213E-01
  -9.428  0.196E-01  0.196E-01
  -9.418  0.187E-01  0.187E-01
  -9.408  0.188E-01  0.188E-01
  -9.398  0.199E-01  0.199E-01
  -9.388  0.220E-01  0.220E-01
  -9.378  0.250E-01  0.250E-01
  -9.368  0.286E-01  0.286E-01
  -9.358  0.326E-01  0.326E-01
  -9.348  0.366E-01  0.366E-01
  -9.338  0.400E-01  0.400E-01
  -9.328  0.427E-01  0.427E-01
  -9.318  0.443E-01  0.443E-01
  -9.308  0.448E-01  0.448E-01
  -9.298  0.441E-01  0.441E-01
  -9.288  0.425E-01  0.425E-01
  -9.278  0.401E-01  0.401E-01
  -9.268  0.370E-01  0.370E-01
  -9.258  0.336E-01  0.336E-01
  -9.248  0.299E-01  0.299E-01
  -9.238  0.261E-01  0.261E-01
  -9.228  0.225E-01  0.225E-01
  -9.218  0.193E-01  0.193E-01
  -9.208  0.168E-01  0.168E-01
  -9.198  0.153E-01  0.153E-01
  -9.188  0.150E-01  0.150E-01
  -9.178  0.161E-01  0.161E-01
  -9.168  0.184E-01  0.184E-01
  -9.158  0.219E-01  0.219E-01
  -9.148  0.262E-01  0.262E-01
  -9.138  0.307E-01  0.307E-01
  -9.128  0.349E-01  0.349E-01
  -9.118  0.383E-01  0.383E-01
  -9.108  0.406E-01  0.406E-01
  -9.098  0.415E-01  0.415E-01
  -9.088  0.412E-01  0.412E-01
  -9.078  0.398E-01  0.398E-01
  -9.068  0.377E-01  0.377E-01
  -9.058  0.352E-01  0.352E-01
  -9.048  0.326E-01  0.326E-01
  -9.038  0.302E-01  0.302E-01
  -9.028  0.282E-01  0.282E-01
  -9.018  0.264E-01  0.264E-01
  -9.008  0.251E-01  0.251E-01
  -8.998  0.241E-01  0.241E-01
  -8.988  0.234E-01  0.234E-01
  -8.978  0.232E-01  0.232E-01
  -8.968  0.235E-01  0.235E-01
  -8.958  0.243E-01  0.243E-01
  -8.948  0.256E-01  0.256E-01
  -8.938  0.273E-01  0.273E-01
  -8.928  0.291E-01  0.291E-01
  -8.918  0.310E-01  0.310E-01
  -8.908  0.326E-01  0.326E-01
  -8.898  0.336E-01  0.336E-01
  -8.888  0.340E-01  0.340E-01
  -8.878  0.336E-01  0.336E-01
  -8.868  0.325E-01  0.325E-01
  -8.858  0.310E-01  0.310E-01
  -8.848  0.291E-01  0.291E-01
  -8.838  0.273E-01  0.273E-01
  -8.828  0.256E-01  0.256E-01
  -8.818  0.241E-01  0.241E-01
  -8.808  0.230E-01  0.230E-01
  -8.798  0.222E-01  0.222E-01
  -8.788  0.218E-01  0.218E-01
  -8.778  0.217E-01  0.217E-01
  -8.768  0.222E-01  0.222E-01
  -8.758  0.231E-01  0.231E-01
  -8.748  0.246E-01  0.246E-01
  -8.738  0.266E-01  0.266E-01
  -8.728  0.292E-01  0.292E-01
  -8.718  0.320E-01  0.320E-01
  -8.708  0.349E-01  0.349E-01
  -8.698  0.375E-01  0.375E-01
  -8.688  0.394E-01  0.394E-01
  -8.678  0.404E-01  0.404E-01
  -8.668  0.401E-01  0.401E-01
  -8.658  0.386E-01  0.386E-01
  -8.648  0.360E-01  0.360E-01
  -8.638  0.324E-01  0.324E-01
  -8.628  0.284E-01  0.284E-01
  -8.618  0.242E-01  0.242E-01
  -8.608  0.204E-01  0.204E-01
  -8.598  0.172E-01  0.172E-01
  -8.588  0.149E-01  0.149E-01
  -8.578  0.137E-01  0.137E-01
  -8.568  0.136E-01  0.136E-01
  -8.558  0.146E-01  0.146E-01
  -8.548  0.166E-01  0.166E-01
  -8.538  0.193E-01  0.193E-01
  -8.528  0.226E-01  0.226E-01
  -8.518  0.261E-01  0.261E-01
  -8.508  0.295E-01  0.295E-01
  -8.498  0.326E-01  0.326E-01
  -8.488  0.350E-01  0.350E-01
  -8.478  0.367E-01  0.367E-01
  -8.468  0.375E-01  0.375E-01
  -8.458  0.374E-01  0.374E-01
  -8.448  0.366E-01  0.366E-01
  -8.438  0.351E-01  0.351E-01
  -8.428  0.332E-01  0.332E-01
  -8.418  0.312E-01  0.312E-01
  -8.408  0.290E-01  0.290E-01
  -8.398  0.270E-01  0.270E-01
  -8.388  0.250E-01  0.250E-01
  -8.378  0.232E-01  0.232E-01
  -8.368  0.216E-01  0.216E-01
  -8.358  0.202E-01  0.202E-01
  -8.348  0.191E-01  0.191E-01
  -8.338  0.184E-01  0.184E-01
  -8.328  0.182E-01  0.182E-01
  -8.318  0.187E-01  0.187E-01
  -8.308  0.198E-01  0.198E-01
  -8.298  0.215E-01  0.215E-01
  -8.288  0.237E-01  0.237E-01
  -8.278  0.261E-01  0.261E-01
  -8.268  0.284E-01  0.284E-01
  -8.258  0.305E-01  0.305E-01
  -8.248  0.320E-01  0.320E-01
  -8.238  0.328E-01  0.328E-01
  -8.228  0.328E-01  0.328E-01
  -8.218  0.321E-01  0.321E-01
  -8.208  0.308E-01  0.308E-01
  -8.198  0.290E-01  0.290E-01
  -8.188  0.270E-01  0.270E-01
  -8.178  0.249E-01  0.249E-01
  -8.168  0.228E-01  0.228E-01
  -8.158  0.210E-01  0.210E-01
  -8.148  0.195E-01  0.195E-01
  -8.138  0.185E-01  0.185E-01
  -8.128  0.179E-01  0.179E-01
  -8.118  0.179E-01  0.179E-01
  -8.108  0.186E-01  0.186E-01
  -8.098  0.200E-01  0.200E-01
  -8.088  0.220E-01  0.220E-01
  -8.078  0.244E-01  0.244E-01
  -8.068  0.271E-01  0.271E-01
  -8.058  0.296E-01  0.296E-01
  -8.048  0.318E-01  0.318E-01
  -8.038  0.333E-01  0.333E-01
  -8.028  0.339E-01  0.339E-01
  -8.018  0.335E-01  0.335E-01
  -8.008  0.323E-01  0.323E-01
  -7.998  0.303E-01  0.303E-01
  -7.988  0.278E-01  0.278E-01
  -7.978  0.251E-01  0.251E-01
  -7.968  0.224E-01  0.224E-01
  -7.958  0.200E-01  0.200E-01
  -7.948  0.180E-01  0.180E-01
  -7.938  0.167E-01  0.167E-01
  -7.928  0.159E-01  0.159E-01
  -7.918  0.157E-01  0.157E-01
  -7.908  0.161E-01  0.161E-01
  -7.898  0.169E-01  0.169E-01
  -7.888  0.179E-01  0.179E-01
  -7.878  0.192E-01  0.192E-01
  -7.868  0.207E-01  0.207E-01
  -7.858  0.222E-01  0.222E-01
  -7.848  0.238E-01  0.238E-01
  -7.838  0.254E-01  0.254E-01
  -7.828  0.269E-01  0.269E-01
  -7.818  0.282E-01  0.282E-01
  -7.808  0.292E-01  0.292E-01
  -7.798  0.299E-01  0.299E-01
  -7.788  0.301E-01  0.301E-01
  -7.778  0.298E-01  0.298E-01
  -7.768  0.291E-01  0.291E-01
  -7.758  0.279E-01  0.279E-01
  -7.748  0.265E-01  0.265E-01
  -7.738  0.248E-01  0.248E-01
  -7.728  0.231E-01  0.231E-01
  -7.718  0.214E-01  0.214E-01
  -7.708  0.199E-01  0.199E-01
  -7.698  0.187E-01  0.187E-01
  -7.688  0.179E-01  0.179E-01
  -7.678  0.173E-01  0.173E-01
  -7.668  0.172E-01  0.172E-01
  -7.658  0.173E-01  0.173E-01
  -7.648  0.178E-01  0.178E-01
  -7.638  0.185E-01  0.185E-01
  -7.628  0.193E-01  0.193E-01
  -7.618  0.203E-01  0.203E-01
  -7.608  0.212E-01  0.212E-01
  -7.598  0.221E-01  0.221E-01
  -7.588  0.228E-01  0.228E-01
  -7.578  0.233E-01  0.233E-01
  -7.568  0.236E-01  0.236E-01
  -7.558  0.237E-01  0.237E-01
  -7.548  0.237E-01  0.237E-01
  -7.538  0.234E-01  0.234E-01
  -7.528  0.230E-01  0.230E-01
  -7.518  0.225E-01  0.225E-01
  -7.508  0.219E-01  0.219E-01
  -7.498  0.214E-01  0.214E-01
  -7.488  0.208E-01  0.208E-01
  -7.478  0.205E-01  0.205E-01
  -7.468  0.203E-01  0.203E-01
  -7.458  0.204E-01  0.204E-01
  -7.448  0.209E-01  0.209E-01
  -7.438  0.215E-01  0.215E-01
  -7.428  0.223E-01  0.223E-01
  -7.418  0.230E-01  0.230E-01
  -7.408  0.236E-01  0.236E-01
  -7.398  0.240E-01  0.240E-01
  -7.388  0.239E-01  0.239E-01
  -7.378  0.234E-01  0.234E-01
  -7.368  0.225E-01  0.225E-01
  -7.358  0.212E-01  0.212E-01
  -7.348  0.197E-01  0.197E-01
  -7.338  0.180E-01  0.180E-01
  -7.328  0.165E-01  0.165E-01
  -7.318  0.152E-01  0.152E-01
  -7.308  0.142E-01  0.142E-01
  -7.298  0.136E-01  0.136E-01
  -7.288  0.136E-01  0.136E-01
  -7.278  0.139E-01  0.139E-01
  -7.268  0.146E-01  0.146E-01
  -7.258  0.155E-01  0.155E-01
  -7.248  0.167E-01  0.167E-01
  -7.238  0.179E-01  0.179E-01
  -7.228  0.193E-01  0.193E-01
  -7.218  0.206E-01  0.206E-01
  -7.208  0.219E-01  0.219E-01
  -7.198  0.232E-01  0.232E-01
  -7.188  0.243E-01  0.243E-01
  -7.178  0.251E-01  0.251E-01
  -7.168  0.255E-01  0.255E-01
  -7.158  0.254E-01  0.254E-01
  -7.148  0.248E-01  0.248E-01
  -7.138  0.237E-01  0.237E-01
  -7.128  0.221E-01  0.221E-01
  -7.118  0.202E-01  0.202E-01
  -7.108  0.183E-01  0.183E-01
  -7.098  0.164E-01  0.164E-01
  -7.088  0.146E-01  0.146E-01
  -7.078  0.133E-01  0.133E-01
  -7.068  0.123E-01  0.123E-01
  -7.058  0.116E-01  0.116E-01
  -7.048  0.114E-01  0.114E-01
  -7.038  0.116E-01  0.116E-01
  -7.028  0.120E-01  0.120E-01
  -7.018  0.127E-01  0.127E-01
  -7.008  0.136E-01  0.136E-01
  -6.998  0.146E-01  0.146E-01
  -6.988  0.158E-01  0.158E-01
  -6.978  0.170E-01  0.170E-01
  -6.968  0.180E-01  0.180E-01
  -6.958  0.189E-01  0.189E-01
  -6.948  0.195E-01  0.195E-01
  -6.938  0.198E-01  0.198E-01
  -6.928  0.196E-01  0.196E-01
  -6.918  0.190E-01  0.190E-01
  -6.908  0.181E-01  0.181E-01
  -6.898  0.170E-01  0.170E-01
  -6.888  0.158E-01  0.158E-01
  -6.878  0.146E-01  0.146E-01
  -6.868  0.137E-01  0.137E-01
  -6.858  0.130E-01  0.130E-01
  -6.848  0.127E-01  0.127E-01
  -6.838  0.127E-01  0.127E-01
  -6.828  0.130E-01  0.130E-01
  -6.818  0.135E-01  0.135E-01
  -6.808  0.141E-01  0.141E-01
  -6.798  0.148E-01  0.148E-01
  -6.788  0.153E-01  0.153E-01
  -6.778  0.156E-01  0.156E-01
  -6.768  0.158E-01  0.158E-01
  -6.758  0.158E-01  0.158E-01
  -6.748  0.155E-01  0.155E-01
  -6.738  0.150E-01  0.150E-01
  -6.728  0.145E-01  0.145E-01
  -6.718  0.138E-01  0.138E-01
  -6.708  0.130E-01  0.130E-01
  -6.698  0.123E-01  0.123E-01
  -6.688  0.117E-01  0.117E-01
  -6.678  0.111E-01  0.111E-01
  -6.668  0.107E-01  0.107E-01
  -6.658  0.103E-01  0.103E-01
  -6.648  0.101E-01  0.101E-01
  -6.638  0.997E-02  0.997E-02
  -6.628  0.997E-02  0.997E-02
  -6.618  0.101E-01  0.101E-01
  -6.608  0.105E-01  0.105E-01
  -6.598  0.110E-01  0.110E-01
  -6.588  0.118E-01  0.118E-01
  -6.578  0.128E-01  0.128E-01
  -6.568  0.140E-01  0.140E-01
  -6.558  0.151E-01  0.151E-01
  -6.548  0.161E-01  0.161E-01
  -6.538  0.169E-01  0.169E-01
  -6.528  0.172E-01  0.172E-01
  -6.518  0.171E-01  0.171E-01
  -6.508  0.164E-01  0.164E-01
  -6.498  0.154E-01  0.154E-01
  -6.488  0.141E-01  0.141E-01
  -6.478  0.127E-01  0.127E-01
  -6.468  0.112E-01  0.112E-01
  -6.458  0.995E-02  0.995E-02
  -6.448  0.893E-02  0.893E-02
  -6.438  0.823E-02  0.823E-02
  -6.428  0.786E-02  0.786E-02
  -6.418  0.781E-02  0.781E-02
  -6.408  0.802E-02  0.802E-02
  -6.398  0.843E-02  0.843E-02
  -6.388  0.895E-02  0.895E-02
  -6.378  0.953E-02  0.953E-02
  -6.368  0.101E-01  0.101E-01
  -6.358  0.106E-01  0.106E-01
  -6.348  0.110E-01  0.110E-01
  -6.338  0.113E-01  0.113E-01
  -6.328  0.115E-01  0.115E-01
  -6.318  0.115E-01  0.115E-01
  -6.308  0.115E-01  0.115E-01
  -6.298  0.114E-01  0.114E-01
  -6.288  0.112E-01  0.112E-01
  -6.278  0.110E-01  0.110E-01
  -6.268  0.108E-01  0.108E-01
  -6.258  0.106E-01  0.106E-01
  -6.248  0.104E-01  0.104E-01
  -6.238  0.104E-01  0.104E-01
  -6.228  0.106E-01  0.106E-01
  -6.218  0.108E-01  0.108E-01
  -6.208  0.111E-01  0.111E-01
  -6.198  0.115E-01  0.115E-01
  -6.188  0.117E-01  0.117E-01
  -6.178  0.118E-01  0.118E-01
  -6.168  0.118E-01  0.118E-01
  -6.158  0.115E-01  0.115E-01
  -6.148  0.111E-01  0.111E-01
  -6.138  0.105E-01  0.105E-01
  -6.128  0.981E-02  0.981E-02
  -6.118  0.904E-02  0.904E-02
  -6.108  0.826E-02  0.826E-02
  -6.098  0.753E-02  0.753E-02
  -6.088  0.687E-02  0.687E-02
  -6.078  0.635E-02  0.635E-02
  -6.068  0.598E-02  0.598E-02
  -6.058  0.579E-02  0.579E-02
  -6.048  0.577E-02  0.577E-02
  -6.038  0.592E-02  0.592E-02
  -6.028  0.622E-02  0.622E-02
  -6.018  0.665E-02  0.665E-02
  -6.008  0.720E-02  0.720E-02
  -5.998  0.788E-02  0.788E-02
  -5.988  0.867E-02  0.867E-02
  -5.978  0.956E-02  0.956E-02
  -5.968  0.105E-01  0.105E-01
  -5.958  0.115E-01  0.115E-01
  -5.948  0.124E-01  0.124E-01
  -5.938  0.130E-01  0.130E-01
  -5.928  0.133E-01  0.133E-01
  -5.918  0.132E-01  0.132E-01
  -5.908  0.127E-01  0.127E-01
  -5.898  0.117E-01  0.117E-01
  -5.888  0.104E-01  0.104E-01
  -5.878  0.883E-02  0.883E-02
  -5.868  0.728E-02  0.728E-02
  -5.858  0.586E-02  0.586E-02
  -5.848  0.474E-02  0.474E-02
  -5.838  0.398E-02  0.398E-02
  -5.828  0.363E-02  0.363E-02
  -5.818  0.367E-02  0.367E-02
  -5.808  0.404E-02  0.404E-02
  -5.798  0.463E-02  0.463E-02
  -5.788  0.536E-02  0.536E-02
  -5.778  0.612E-02  0.612E-02
  -5.768  0.684E-02  0.684E-02
  -5.758  0.747E-02  0.747E-02
  -5.748  0.797E-02  0.797E-02
  -5.738  0.833E-02  0.833E-02
  -5.728  0.855E-02  0.855E-02
  -5.718  0.864E-02  0.864E-02
  -5.708  0.861E-02  0.861E-02
  -5.698  0.848E-02  0.848E-02
  -5.688  0.828E-02  0.828E-02
  -5.678  0.803E-02  0.803E-02
  -5.668  0.777E-02  0.777E-02
  -5.658  0.753E-02  0.753E-02
  -5.648  0.734E-02  0.734E-02
  -5.638  0.723E-02  0.723E-02
  -5.628  0.721E-02  0.721E-02
  -5.618  0.726E-02  0.726E-02
  -5.608  0.737E-02  0.737E-02
  -5.598  0.748E-02  0.748E-02
  -5.588  0.754E-02  0.754E-02
  -5.578  0.751E-02  0.751E-02
  -5.568  0.734E-02  0.734E-02
  -5.558  0.702E-02  0.702E-02
  -5.548  0.656E-02  0.656E-02
  -5.538  0.601E-02  0.601E-02
  -5.528  0.542E-02  0.542E-02
  -5.518  0.487E-02  0.487E-02
  -5.508  0.441E-02  0.441E-02
  -5.498  0.411E-02  0.411E-02
  -5.488  0.398E-02  0.398E-02
  -5.478  0.404E-02  0.404E-02
  -5.468  0.425E-02  0.425E-02
  -5.458  0.459E-02  0.459E-02
  -5.448  0.499E-02  0.499E-02
  -5.438  0.541E-02  0.541E-02
  -5.428  0.581E-02  0.581E-02
  -5.418  0.619E-02  0.619E-02
  -5.408  0.652E-02  0.652E-02
  -5.398  0.681E-02  0.681E-02
  -5.388  0.707E-02  0.707E-02
  -5.378  0.727E-02  0.727E-02
  -5.368  0.741E-02  0.741E-02
  -5.358  0.744E-02  0.744E-02
  -5.348  0.733E-02  0.733E-02
  -5.338  0.706E-02  0.706E-02
  -5.328  0.663E-02  0.663E-02
  -5.318  0.607E-02  0.607E-02
  -5.308  0.544E-02  0.544E-02
  -5.298  0.481E-02  0.481E-02
  -5.288  0.427E-02  0.427E-02
  -5.278  0.389E-02  0.389E-02
  -5.268  0.372E-02  0.372E-02
  -5.258  0.375E-02  0.375E-02
  -5.248  0.397E-02  0.397E-02
  -5.238  0.431E-02  0.431E-02
  -5.228  0.468E-02  0.468E-02
  -5.218  0.500E-02  0.500E-02
  -5.208  0.520E-02  0.520E-02
  -5.198  0.523E-02  0.523E-02
  -5.188  0.509E-02  0.509E-02
  -5.178  0.481E-02  0.481E-02
  -5.168  0.443E-02  0.443E-02
  -5.158  0.403E-02  0.403E-02
  -5.148  0.369E-02  0.369E-02
  -5.138  0.345E-02  0.345E-02
  -5.128  0.336E-02  0.336E-02
  -5.118  0.343E-02  0.343E-02
  -5.108  0.366E-02  0.366E-02
  -5.098  0.402E-02  0.402E-02
  -5.088  0.447E-02  0.447E-02
  -5.078  0.499E-02  0.499E-02
  -5.068  0.550E-02  0.550E-02
  -5.058  0.597E-02  0.597E-02
  -5.048  0.633E-02  0.633E-02
  -5.038  0.653E-02  0.653E-02
  -5.028  0.650E-02  0.650E-02
  -5.018  0.624E-02  0.624E-02
  -5.008  0.573E-02  0.573E-02
  -4.998  0.503E-02  0.503E-02
  -4.988  0.419E-02  0.419E-02
  -4.978  0.331E-02  0.331E-02
  -4.968  0.250E-02  0.250E-02
  -4.958  0.185E-02  0.185E-02
  -4.948  0.141E-02  0.141E-02
  -4.938  0.123E-02  0.123E-02
  -4.928  0.130E-02  0.130E-02
  -4.918  0.158E-02  0.158E-02
  -4.908  0.202E-02  0.202E-02
  -4.898  0.255E-02  0.255E-02
  -4.888  0.311E-02  0.311E-02
  -4.878  0.365E-02  0.365E-02
  -4.868  0.413E-02  0.413E-02
  -4.858  0.453E-02  0.453E-02
  -4.848  0.484E-02  0.484E-02
  -4.838  0.505E-02  0.505E-02
  -4.828  0.514E-02  0.514E-02
  -4.818  0.511E-02  0.511E-02
  -4.808  0.495E-02  0.495E-02
  -4.798  0.468E-02  0.468E-02
  -4.788  0.430E-02  0.430E-02
  -4.778  0.385E-02  0.385E-02
  -4.768  0.337E-02  0.337E-02
  -4.758  0.292E-02  0.292E-02
  -4.748  0.252E-02  0.252E-02
  -4.738  0.223E-02  0.223E-02
  -4.728  0.204E-02  0.204E-02
  -4.718  0.196E-02  0.196E-02
  -4.708  0.197E-02  0.197E-02
  -4.698  0.202E-02  0.202E-02
  -4.688  0.210E-02  0.210E-02
  -4.678  0.218E-02  0.218E-02
  -4.668  0.225E-02  0.225E-02
  -4.658  0.233E-02  0.233E-02
  -4.648  0.241E-02  0.241E-02
  -4.638  0.250E-02  0.250E-02
  -4.628  0.262E-02  0.262E-02
  -4.618  0.276E-02  0.276E-02
  -4.608  0.292E-02  0.292E-02
  -4.598  0.307E-02  0.307E-02
  -4.588  0.320E-02  0.320E-02
  -4.578  0.330E-02  0.330E-02
  -4.568  0.334E-02  0.334E-02
  -4.558  0.332E-02  0.332E-02
  -4.548  0.322E-02  0.322E-02
  -4.538  0.305E-02  0.305E-02
  -4.528  0.282E-02  0.282E-02
  -4.518  0.255E-02  0.255E-02
  -4.508  0.225E-02  0.225E-02
  -4.498  0.197E-02  0.197E-02
  -4.488  0.173E-02  0.173E-02
  -4.478  0.157E-02  0.157E-02
  -4.468  0.148E-02  0.148E-02
  -4.458  0.148E-02  0.148E-02
  -4.448  0.154E-02  0.154E-02
  -4.438  0.163E-02  0.163E-02
  -4.428  0.172E-02  0.172E-02
  -4.418  0.180E-02  0.180E-02
  -4.408  0.185E-02  0.185E-02
  -4.398  0.187E-02  0.187E-02
  -4.388  0.187E-02  0.187E-02
  -4.378  0.188E-02  0.188E-02
  -4.368  0.191E-02  0.191E-02
  -4.358  0.197E-02  0.197E-02
  -4.348  0.206E-02  0.206E-02
  -4.338  0.216E-02  0.216E-02
  -4.328  0.225E-02  0.225E-02
  -4.318  0.230E-02  0.230E-02
  -4.308  0.228E-02  0.228E-02
  -4.298  0.219E-02  0.219E-02
  -4.288  0.202E-02  0.202E-02
  -4.278  0.180E-02  0.180E-02
  -4.268  0.154E-02  0.154E-02
  -4.258  0.127E-02  0.127E-02
  -4.248  0.104E-02  0.104E-02
  -4.238  0.867E-03  0.867E-03
  -4.228  0.771E-03  0.771E-03
  -4.218  0.761E-03  0.761E-03
  -4.208  0.832E-03  0.832E-03
  -4.198  0.968E-03  0.968E-03
  -4.188  0.114E-02  0.114E-02
  -4.178  0.133E-02  0.133E-02
  -4.168  0.150E-02  0.150E-02
  -4.158  0.163E-02  0.163E-02
  -4.148  0.170E-02  0.170E-02
  -4.138  0.171E-02  0.171E-02
  -4.128  0.165E-02  0.165E-02
  -4.118  0.154E-02  0.154E-02
  -4.108  0.139E-02  0.139E-02
  -4.098  0.123E-02  0.123E-02
  -4.088  0.106E-02  0.106E-02
  -4.078  0.904E-03  0.904E-03
  -4.068  0.777E-03  0.777E-03
  -4.058  0.685E-03  0.685E-03
  -4.048  0.631E-03  0.631E-03
  -4.038  0.616E-03  0.616E-03
  -4.028  0.634E-03  0.634E-03
  -4.018  0.679E-03  0.679E-03
  -4.008  0.743E-03  0.743E-03
  -3.998  0.814E-03  0.814E-03
  -3.988  0.882E-03  0.882E-03
  -3.978  0.937E-03  0.937E-03
  -3.968  0.967E-03  0.967E-03
  -3.958  0.967E-03  0.967E-03
  -3.948  0.933E-03  0.933E-03
  -3.938  0.869E-03  0.869E-03
  -3.928  0.781E-03  0.781E-03
  -3.918  0.683E-03  0.683E-03
  -3.908  0.587E-03  0.587E-03
  -3.898  0.504E-03  0.504E-03
  -3.888  0.444E-03  0.444E-03
  -3.878  0.410E-03  0.410E-03
  -3.868  0.398E-03  0.398E-03
  -3.858  0.405E-03  0.405E-03
  -3.848  0.422E-03  0.422E-03
  -3.838  0.441E-03  0.441E-03
  -3.828  0.453E-03  0.453E-03
  -3.818  0.454E-03  0.454E-03
  -3.808  0.442E-03  0.442E-03
  -3.798  0.416E-03  0.416E-03
  -3.788  0.379E-03  0.379E-03
  -3.778  0.337E-03  0.337E-03
  -3.768  0.295E-03  0.295E-03
  -3.758  0.258E-03  0.258E-03
  -3.748  0.228E-03  0.228E-03
  -3.738  0.208E-03  0.208E-03
  -3.728  0.195E-03  0.195E-03
  -3.718  0.188E-03  0.188E-03
  -3.708  0.182E-03  0.182E-03
  -3.698  0.175E-03  0.175E-03
  -3.688  0.164E-03  0.164E-03
  -3.678  0.150E-03  0.150E-03
  -3.668  0.133E-03  0.133E-03
  -3.658  0.114E-03  0.114E-03
  -3.648  0.951E-04  0.951E-04
  -3.638  0.778E-04  0.778E-04
  -3.628  0.631E-04  0.631E-04
  -3.618  0.513E-04  0.513E-04
  -3.608  0.425E-04  0.425E-04
  -3.598  0.362E-04  0.362E-04
  -3.588  0.321E-04  0.321E-04
  -3.578  0.295E-04  0.295E-04
  -3.568  0.282E-04  0.282E-04
  -3.558  0.277E-04  0.277E-04
  -3.548  0.278E-04  0.278E-04
  -3.538  0.283E-04  0.283E-04
  -3.528  0.292E-04  0.292E-04
  -3.518  0.303E-04  0.303E-04
  -3.508  0.317E-04  0.317E-04
  -3.498  0.333E-04  0.333E-04
  -3.488  0.352E-04  0.352E-04
  -3.478  0.375E-04  0.375E-04
  -3.468  0.399E-04  0.399E-04
  -3.458  0.427E-04  0.427E-04
  -3.448  0.455E-04  0.455E-04
  -3.438  0.485E-04  0.485E-04
  -3.428  0.513E-04  0.513E-04
  -3.418  0.540E-04  0.540E-04
  -3.408  0.562E-04  0.562E-04
  -3.398  0.578E-04  0.578E-04
  -3.388  0.586E-04  0.586E-04
  -3.378  0.586E-04  0.586E-04
  -3.368  0.576E-04  0.576E-04
  -3.358  0.558E-04  0.558E-04
  -3.348  0.533E-04  0.533E-04
  -3.338  0.503E-04  0.503E-04
  -3.328  0.471E-04  0.471E-04
  -3.318  0.441E-04  0.441E-04
  -3.308  0.414E-04  0.414E-04
  -3.298  0.392E-04  0.392E-04
  -3.288  0.377E-04  0.377E-04
  -3.278  0.368E-04  0.368E-04
  -3.268  0.363E-04  0.363E-04
  -3.258  0.362E-04  0.362E-04
  -3.248  0.364E-04  0.364E-04
  -3.238  0.368E-04  0.368E-04
  -3.228  0.375E-04  0.375E-04
  -3.218  0.386E-04  0.386E-04
  -3.208  0.401E-04  0.401E-04
  -3.198  0.421E-04  0.421E-04
  -3.188  0.445E-04  0.445E-04
  -3.178  0.472E-04  0.472E-04
  -3.168  0.500E-04  0.500E-04
  -3.158  0.526E-04  0.526E-04
  -3.148  0.548E-04  0.548E-04
  -3.138  0.562E-04  0.562E-04
  -3.128  0.569E-04  0.569E-04
  -3.118  0.566E-04  0.566E-04
  -3.108  0.556E-04  0.556E-04
  -3.098  0.539E-04  0.539E-04
  -3.088  0.519E-04  0.519E-04
  -3.078  0.497E-04  0.497E-04
  -3.068  0.476E-04  0.476E-04
  -3.058  0.457E-04  0.457E-04
  -3.048  0.439E-04  0.439E-04
  -3.038  0.424E-04  0.424E-04
  -3.028  0.409E-04  0.409E-04
  -3.018  0.395E-04  0.395E-04
  -3.008  0.381E-04  0.381E-04
  -2.998  0.365E-04  0.365E-04
  -2.988  0.346E-04  0.346E-04
  -2.978  0.327E-04  0.327E-04
  -2.968  0.306E-04  0.306E-04
  -2.958  0.288E-04  0.288E-04
  -2.948  0.274E-04  0.274E-04
  -2.938  0.266E-04  0.266E-04
  -2.928  0.266E-04  0.266E-04
  -2.918  0.274E-04  0.274E-04
  -2.908  0.291E-04  0.291E-04
  -2.898  0.314E-04  0.314E-04
  -2.888  0.340E-04  0.340E-04
  -2.878  0.367E-04  0.367E-04
  -2.868  0.393E-04  0.393E-04
  -2.858  0.416E-04  0.416E-04
  -2.848  0.437E-04  0.437E-04
  -2.838  0.455E-04  0.455E-04
  -2.828  0.472E-04  0.472E-04
  -2.818  0.488E-04  0.488E-04
  -2.808  0.503E-04  0.503E-04
  -2.798  0.515E-04  0.515E-04
  -2.788  0.520E-04  0.520E-04
  -2.778  0.517E-04  0.517E-04
  -2.768  0.502E-04  0.502E-04
  -2.758  0.475E-04  0.475E-04
  -2.748  0.436E-04  0.436E-04
  -2.738  0.388E-04  0.388E-04
  -2.728  0.336E-04  0.336E-04
  -2.718  0.285E-04  0.285E-04
  -2.708  0.241E-04  0.241E-04
  -2.698  0.210E-04  0.210E-04
  -2.688  0.195E-04  0.195E-04
  -2.678  0.196E-04  0.196E-04
  -2.668  0.213E-04  0.213E-04
  -2.658  0.242E-04  0.242E-04
  -2.648  0.279E-04  0.279E-04
  -2.638  0.317E-04  0.317E-04
  -2.628  0.351E-04  0.351E-04
  -2.618  0.374E-04  0.374E-04
  -2.608  0.383E-04  0.383E-04
  -2.598  0.376E-04  0.376E-04
  -2.588  0.355E-04  0.355E-04
  -2.578  0.323E-04  0.323E-04
  -2.568  0.284E-04  0.284E-04
  -2.558  0.245E-04  0.245E-04
  -2.548  0.211E-04  0.211E-04
  -2.538  0.184E-04  0.184E-04
  -2.528  0.167E-04  0.167E-04
  -2.518  0.158E-04  0.158E-04
  -2.508  0.157E-04  0.157E-04
  -2.498  0.160E-04  0.160E-04
  -2.488  0.164E-04  0.164E-04
  -2.478  0.167E-04  0.167E-04
  -2.468  0.168E-04  0.168E-04
  -2.458  0.168E-04  0.168E-04
  -2.448  0.166E-04  0.166E-04
  -2.438  0.164E-04  0.164E-04
  -2.428  0.164E-04  0.164E-04
  -2.418  0.166E-04  0.166E-04
  -2.408  0.171E-04  0.171E-04
  -2.398  0.177E-04  0.177E-04
  -2.388  0.185E-04  0.185E-04
  -2.378  0.192E-04  0.192E-04
  -2.368  0.197E-04  0.197E-04
  -2.358  0.196E-04  0.196E-04
  -2.348  0.191E-04  0.191E-04
  -2.338  0.180E-04  0.180E-04
  -2.328  0.166E-04  0.166E-04
  -2.318  0.148E-04  0.148E-04
  -2.308  0.131E-04  0.131E-04
  -2.298  0.115E-04  0.115E-04
  -2.288  0.103E-04  0.103E-04
  -2.278  0.946E-05  0.946E-05
  -2.268  0.906E-05  0.906E-05
  -2.258  0.903E-05  0.903E-05
  -2.248  0.929E-05  0.929E-05
  -2.238  0.973E-05  0.973E-05
  -2.228  0.103E-04  0.103E-04
  -2.218  0.109E-04  0.109E-04
  -2.208  0.115E-04  0.115E-04
  -2.198  0.120E-04  0.120E-04
  -2.188  0.125E-04  0.125E-04
  -2.178  0.128E-04  0.128E-04
  -2.168  0.129E-04  0.129E-04
  -2.158  0.129E-04  0.129E-04
  -2.148  0.127E-04  0.127E-04
  -2.138  0.123E-04  0.123E-04
  -2.128  0.119E-04  0.119E-04
  -2.118  0.115E-04  0.115E-04
  -2.108  0.111E-04  0.111E-04
  -2.098  0.107E-04  0.107E-04
  -2.088  0.102E-04  0.102E-04
  -2.078  0.976E-05  0.976E-05
  -2.068  0.922E-05  0.922E-05
  -2.058  0.859E-05  0.859E-05
  -2.048  0.791E-05  0.791E-05
  -2.038  0.720E-05  0.720E-05
  -2.028  0.654E-05  0.654E-05
  -2.018  0.597E-05  0.597E-05
  -2.008  0.554E-05  0.554E-05
  -1.998  0.529E-05  0.529E-05
  -1.988  0.523E-05  0.523E-05
  -1.978  0.534E-05  0.534E-05
  -1.968  0.560E-05  0.560E-05
  -1.958  0.598E-05  0.598E-05
  -1.948  0.644E-05  0.644E-05
  -1.938  0.692E-05  0.692E-05
  -1.928  0.738E-05  0.738E-05
  -1.918  0.778E-05  0.778E-05
  -1.908  0.807E-05  0.807E-05
  -1.898  0.823E-05  0.823E-05
  -1.888  0.826E-05  0.826E-05
  -1.878  0.818E-05  0.818E-05
  -1.868  0.800E-05  0.800E-05
  -1.858  0.776E-05  0.776E-05
  -1.848  0.748E-05  0.748E-05
  -1.838  0.718E-05  0.718E-05
  -1.828  0.683E-05  0.683E-05
  -1.818  0.644E-05  0.644E-05
  -1.808  0.598E-05  0.598E-05
  -1.798  0.545E-05  0.545E-05
  -1.788  0.488E-05  0.488E-05
  -1.778  0.431E-05  0.431E-05
  -1.768  0.379E-05  0.379E-05
  -1.758  0.336E-05  0.336E-05
  -1.748  0.305E-05  0.305E-05
  -1.738  0.288E-05  0.288E-05
  -1.728  0.282E-05  0.282E-05
  -1.718  0.285E-05  0.285E-05
  -1.708  0.293E-05  0.293E-05
  -1.698  0.305E-05  0.305E-05
  -1.688  0.321E-05  0.321E-05
  -1.678  0.341E-05  0.341E-05
  -1.668  0.367E-05  0.367E-05
  -1.658  0.401E-05  0.401E-05
  -1.648  0.440E-05  0.440E-05
  -1.638  0.482E-05  0.482E-05
  -1.628  0.521E-05  0.521E-05
  -1.618  0.551E-05  0.551E-05
  -1.608  0.567E-05  0.567E-05
  -1.598  0.564E-05  0.564E-05
  -1.588  0.541E-05  0.541E-05
  -1.578  0.500E-05  0.500E-05
  -1.568  0.446E-05  0.446E-05
  -1.558  0.383E-05  0.383E-05
  -1.548  0.320E-05  0.320E-05
  -1.538  0.262E-05  0.262E-05
  -1.528  0.215E-05  0.215E-05
  -1.518  0.181E-05  0.181E-05
  -1.508  0.162E-05  0.162E-05
  -1.498  0.156E-05  0.156E-05
  -1.488  0.160E-05  0.160E-05
  -1.478  0.170E-05  0.170E-05
  -1.468  0.184E-05  0.184E-05
  -1.458  0.198E-05  0.198E-05
  -1.448  0.210E-05  0.210E-05
  -1.438  0.218E-05  0.218E-05
  -1.428  0.222E-05  0.222E-05
  -1.418  0.223E-05  0.223E-05
  -1.408  0.223E-05  0.223E-05
  -1.398  0.223E-05  0.223E-05
  -1.388  0.224E-05  0.224E-05
  -1.378  0.226E-05  0.226E-05
  -1.368  0.229E-05  0.229E-05
  -1.358  0.235E-05  0.235E-05
  -1.348  0.240E-05  0.240E-05
  -1.338  0.246E-05  0.246E-05
  -1.328  0.249E-05  0.249E-05
  -1.318  0.250E-05  0.250E-05
  -1.308  0.247E-05  0.247E-05
  -1.298  0.239E-05  0.239E-05
  -1.288  0.226E-05  0.226E-05
  -1.278  0.209E-05  0.209E-05
  -1.268  0.189E-05  0.189E-05
  -1.258  0.166E-05  0.166E-05
  -1.248  0.142E-05  0.142E-05
  -1.238  0.118E-05  0.118E-05
  -1.228  0.956E-06  0.956E-06
  -1.218  0.763E-06  0.763E-06
  -1.208  0.611E-06  0.611E-06
  -1.198  0.509E-06  0.509E-06
  -1.188  0.464E-06  0.464E-06
  -1.178  0.477E-06  0.477E-06
  -1.168  0.544E-06  0.544E-06
  -1.158  0.657E-06  0.657E-06
  -1.148  0.804E-06  0.804E-06
  -1.138  0.972E-06  0.972E-06
  -1.128  0.115E-05  0.115E-05
  -1.118  0.132E-05  0.132E-05
  -1.108  0.147E-05  0.147E-05
  -1.098  0.159E-05  0.159E-05
  -1.088  0.167E-05  0.167E-05
  -1.078  0.169E-05  0.169E-05
  -1.068  0.164E-05  0.164E-05
  -1.058  0.152E-05  0.152E-05
  -1.048  0.133E-05  0.133E-05
  -1.038  0.109E-05  0.109E-05
  -1.028  0.831E-06  0.831E-06
  -1.018  0.569E-06  0.569E-06
  -1.008  0.338E-06  0.338E-06
  -0.998  0.157E-06  0.157E-06
  -0.988  0.413E-07  0.413E-07
  -0.978 -0.675E-08 -0.675E-08
  -0.968  0.692E-08  0.692E-08
  -0.958  0.697E-07  0.697E-07
  -0.948  0.165E-06  0.165E-06
  -0.938  0.276E-06  0.276E-06
  -0.928  0.385E-06  0.385E-06
  -0.918  0.481E-06  0.481E-06
  -0.908  0.553E-06  0.553E-06
  -0.898  0.595E-06  0.595E-06
  -0.888  0.607E-06  0.607E-06
  -0.878  0.591E-06  0.591E-06
  -0.868  0.551E-06  0.551E-06
  -0.858  0.494E-06  0.494E-06
  -0.848  0.427E-06  0.427E-06
  -0.838  0.356E-06  0.356E-06
  -0.828  0.284E-06  0.284E-06
  -0.818  0.217E-06  0.217E-06
  -0.808  0.156E-06  0.156E-06
  -0.798  0.103E-06  0.103E-06
  -0.788  0.612E-07  0.612E-07
  -0.778  0.310E-07  0.310E-07
  -0.768  0.139E-07  0.139E-07
  -0.758  0.102E-07  0.102E-07
  -0.748  0.192E-07  0.192E-07
  -0.738  0.388E-07  0.388E-07
  -0.728  0.659E-07  0.659E-07
  -0.718  0.962E-07  0.962E-07
  -0.708  0.125E-06  0.125E-06
  -0.698  0.149E-06  0.149E-06
  -0.688  0.163E-06  0.163E-06
  -0.678  0.165E-06  0.165E-06
  -0.668  0.156E-06  0.156E-06
  -0.658  0.136E-06  0.136E-06
  -0.648  0.109E-06  0.109E-06
  -0.638  0.782E-07  0.782E-07
  -0.628  0.478E-07  0.478E-07
  -0.618  0.214E-07  0.214E-07
  -0.608  0.862E-09  0.862E-09
  -0.598 -0.128E-07 -0.128E-07
  -0.588 -0.201E-07 -0.201E-07
  -0.578 -0.222E-07 -0.222E-07
  -0.568 -0.208E-07 -0.208E-07
  -0.558 -0.174E-07 -0.174E-07
  -0.548 -0.133E-07 -0.133E-07
  -0.538 -0.928E-08 -0.928E-08
  -0.528 -0.570E-08 -0.570E-08
  -0.518 -0.264E-08 -0.264E-08
  -0.508  0.984E-10  0.984E-10
  -0.498  0.280E-08  0.280E-08
  -0.488  0.579E-08  0.579E-08
  -0.478  0.932E-08  0.932E-08
  -0.468  0.135E-07  0.135E-07
  -0.458  0.183E-07  0.183E-07
  -0.448  0.236E-07  0.236E-07
  -0.438  0.287E-07  0.287E-07
  -0.428  0.332E-07  0.332E-07
  -0.418  0.364E-07  0.364E-07
  -0.408  0.377E-07  0.377E-07
  -0.398  0.368E-07  0.368E-07
  -0.388  0.337E-07  0.337E-07
  -0.378  0.288E-07  0.288E-07
  -0.368  0.226E-07  0.226E-07
  -0.358  0.160E-07  0.160E-07
  -0.348  0.987E-08  0.987E-08
  -0.338  0.488E-08  0.488E-08
  -0.328  0.153E-08  0.153E-08
  -0.318  0.605E-10  0.605E-10
  -0.308  0.472E-09  0.472E-09
  -0.298  0.264E-08  0.264E-08
  -0.288  0.635E-08  0.635E-08
  -0.278  0.114E-07  0.114E-07
  -0.268  0.177E-07  0.177E-07
  -0.258  0.251E-07  0.251E-07
  -0.248  0.333E-07  0.333E-07
  -0.238  0.424E-07  0.424E-07
  -0.228  0.520E-07  0.520E-07
  -0.218  0.618E-07  0.618E-07
  -0.208  0.712E-07  0.712E-07
  -0.198  0.795E-07  0.795E-07
  -0.188  0.860E-07  0.860E-07
  -0.178  0.900E-07  0.900E-07
  -0.168  0.913E-07  0.913E-07
  -0.158  0.902E-07  0.902E-07
  -0.148  0.875E-07  0.875E-07
  -0.138  0.849E-07  0.849E-07
  -0.128  0.843E-07  0.843E-07
  -0.118  0.878E-07  0.878E-07
  -0.108  0.966E-07  0.966E-07
  -0.098  0.111E-06  0.111E-06
  -0.088  0.130E-06  0.130E-06
  -0.078  0.152E-06  0.152E-06
  -0.068  0.172E-06  0.172E-06
  -0.058  0.187E-06  0.187E-06
  -0.048  0.194E-06  0.194E-06
  -0.038  0.190E-06  0.190E-06
  -0.028  0.177E-06  0.177E-06
  -0.018  0.157E-06  0.157E-06
  -0.008  0.132E-06  0.132E-06
   0.002  0.106E-06  0.106E-06
   0.012  0.845E-07  0.845E-07
   0.022  0.684E-07  0.684E-07
   0.032  0.591E-07  0.591E-07
   0.042  0.561E-07  0.561E-07
   0.052  0.578E-07  0.578E-07
   0.062  0.623E-07  0.623E-07
   0.072  0.680E-07  0.680E-07
   0.082  0.737E-07  0.737E-07
   0.092  0.793E-07  0.793E-07
   0.102  0.850E-07  0.850E-07
   0.112  0.914E-07  0.914E-07
   0.122  0.988E-07  0.988E-07
   0.132  0.107E-06  0.107E-06
   0.142  0.115E-06  0.115E-06
   0.152  0.122E-06  0.122E-06
   0.162  0.126E-06  0.126E-06
   0.172  0.127E-06  0.127E-06
   0.182  0.123E-06  0.123E-06
   0.192  0.117E-06  0.117E-06
   0.202  0.107E-06  0.107E-06
   0.212  0.961E-07  0.961E-07
   0.222  0.845E-07  0.845E-07
   0.232  0.729E-07  0.729E-07
   0.242  0.620E-07  0.620E-07
   0.252  0.519E-07  0.519E-07
   0.262  0.426E-07  0.426E-07
   0.272  0.345E-07  0.345E-07
   0.282  0.279E-07  0.279E-07
   0.292  0.233E-07  0.233E-07
   0.302  0.214E-07  0.214E-07
   0.312  0.223E-07  0.223E-07
   0.322  0.262E-07  0.262E-07
   0.332  0.325E-07  0.325E-07
   0.342  0.407E-07  0.407E-07
   0.352  0.498E-07  0.498E-07
   0.362  0.587E-07  0.587E-07
   0.372  0.665E-07  0.665E-07
   0.382  0.723E-07  0.723E-07
   0.392  0.756E-07  0.756E-07
   0.402  0.761E-07  0.761E-07
   0.412  0.739E-07  0.739E-07
   0.422  0.694E-07  0.694E-07
   0.432  0.632E-07  0.632E-07
   0.442  0.562E-07  0.562E-07
   0.452  0.495E-07  0.495E-07
   0.462  0.441E-07  0.441E-07
   0.472  0.410E-07  0.410E-07
   0.482  0.409E-07  0.409E-07
   0.492  0.441E-07  0.441E-07
   0.502  0.506E-07  0.506E-07
   0.512  0.598E-07  0.598E-07
   0.522  0.707E-07  0.707E-07
   0.532  0.822E-07  0.822E-07
   0.542  0.930E-07  0.930E-07
   0.552  0.102E-06  0.102E-06
   0.562  0.109E-06  0.109E-06
   0.572  0.112E-06  0.112E-06
   0.582  0.114E-06  0.114E-06
   0.592  0.113E-06  0.113E-06
   0.602  0.112E-06  0.112E-06
   0.612  0.111E-06  0.111E-06
   0.622  0.110E-06  0.110E-06
   0.632  0.111E-06  0.111E-06
   0.642  0.114E-06  0.114E-06
   0.652  0.117E-06  0.117E-06
   0.662  0.121E-06  0.121E-06
   0.672  0.126E-06  0.126E-06
   0.682  0.130E-06  0.130E-06
   0.692  0.133E-06  0.133E-06
   0.702  0.136E-06  0.136E-06
   0.712  0.139E-06  0.139E-06
   0.722  0.142E-06  0.142E-06
   0.732  0.148E-06  0.148E-06
   0.742  0.158E-06  0.158E-06
   0.752  0.175E-06  0.175E-06
   0.762  0.203E-06  0.203E-06
   0.772  0.243E-06  0.243E-06
   0.782  0.297E-06  0.297E-06
   0.792  0.366E-06  0.366E-06
   0.802  0.445E-06  0.445E-06
   0.812  0.530E-06  0.530E-06
   0.822  0.616E-06  0.616E-06
   0.832  0.697E-06  0.697E-06
   0.842  0.769E-06  0.769E-06
   0.852  0.834E-06  0.834E-06
   0.862  0.894E-06  0.894E-06
   0.872  0.959E-06  0.959E-06
   0.882  0.104E-05  0.104E-05
   0.892  0.114E-05  0.114E-05
   0.902  0.128E-05  0.128E-05
   0.912  0.145E-05  0.145E-05
   0.922  0.164E-05  0.164E-05
   0.932  0.185E-05  0.185E-05
   0.942  0.206E-05  0.206E-05
   0.952  0.226E-05  0.226E-05
   0.962  0.241E-05  0.241E-05
   0.972  0.252E-05  0.252E-05
   0.982  0.258E-05  0.258E-05
   0.992  0.260E-05  0.260E-05
   1.002  0.258E-05  0.258E-05
   1.012  0.253E-05  0.253E-05
   1.022  0.249E-05  0.249E-05
   1.032  0.247E-05  0.247E-05
   1.042  0.248E-05  0.248E-05
   1.052  0.252E-05  0.252E-05
   1.062  0.261E-05  0.261E-05
   1.072  0.272E-05  0.272E-05
   1.082  0.285E-05  0.285E-05
   1.092  0.297E-05  0.297E-05
   1.102  0.307E-05  0.307E-05
   1.112  0.313E-05  0.313E-05
   1.122  0.314E-05  0.314E-05
   1.132  0.310E-05  0.310E-05
   1.142  0.303E-05  0.303E-05
   1.152  0.295E-05  0.295E-05
   1.162  0.289E-05  0.289E-05
   1.172  0.288E-05  0.288E-05
   1.182  0.293E-05  0.293E-05
   1.192  0.304E-05  0.304E-05
   1.202  0.320E-05  0.320E-05
   1.212  0.339E-05  0.339E-05
   1.222  0.361E-05  0.361E-05
   1.232  0.383E-05  0.383E-05
   1.242  0.406E-05  0.406E-05
   1.252  0.432E-05  0.432E-05
   1.262  0.462E-05  0.462E-05
   1.272  0.499E-05  0.499E-05
   1.282  0.544E-05  0.544E-05
   1.292  0.595E-05  0.595E-05
   1.302  0.650E-05  0.650E-05
   1.312  0.704E-05  0.704E-05
   1.322  0.753E-05  0.753E-05
   1.332  0.790E-05  0.790E-05
   1.342  0.814E-05  0.814E-05
   1.352  0.824E-05  0.824E-05
   1.362  0.819E-05  0.819E-05
   1.372  0.805E-05  0.805E-05
   1.382  0.786E-05  0.786E-05
   1.392  0.765E-05  0.765E-05
   1.402  0.747E-05  0.747E-05
   1.412  0.733E-05  0.733E-05
   1.422  0.721E-05  0.721E-05
   1.432  0.712E-05  0.712E-05
   1.442  0.701E-05  0.701E-05
   1.452  0.686E-05  0.686E-05
   1.462  0.665E-05  0.665E-05
   1.472  0.638E-05  0.638E-05
   1.482  0.607E-05  0.607E-05
   1.492  0.574E-05  0.574E-05
   1.502  0.544E-05  0.544E-05
   1.512  0.521E-05  0.521E-05
   1.522  0.509E-05  0.509E-05
   1.532  0.510E-05  0.510E-05
   1.542  0.522E-05  0.522E-05
   1.552  0.542E-05  0.542E-05
   1.562  0.566E-05  0.566E-05
   1.572  0.588E-05  0.588E-05
   1.582  0.605E-05  0.605E-05
   1.592  0.613E-05  0.613E-05
   1.602  0.613E-05  0.613E-05
   1.612  0.605E-05  0.605E-05
   1.622  0.594E-05  0.594E-05
   1.632  0.583E-05  0.583E-05
   1.642  0.576E-05  0.576E-05
   1.652  0.575E-05  0.575E-05
   1.662  0.582E-05  0.582E-05
   1.672  0.595E-05  0.595E-05
   1.682  0.614E-05  0.614E-05
   1.692  0.636E-05  0.636E-05
   1.702  0.661E-05  0.661E-05
   1.712  0.685E-05  0.685E-05
   1.722  0.708E-05  0.708E-05
   1.732  0.727E-05  0.727E-05
   1.742  0.740E-05  0.740E-05
   1.752  0.747E-05  0.747E-05
   1.762  0.746E-05  0.746E-05
   1.772  0.735E-05  0.735E-05
   1.782  0.717E-05  0.717E-05
   1.792  0.692E-05  0.692E-05
   1.802  0.664E-05  0.664E-05
   1.812  0.635E-05  0.635E-05
   1.822  0.606E-05  0.606E-05
   1.832  0.580E-05  0.580E-05
   1.842  0.557E-05  0.557E-05
   1.852  0.539E-05  0.539E-05
   1.862  0.527E-05  0.527E-05
   1.872  0.524E-05  0.524E-05
   1.882  0.532E-05  0.532E-05
   1.892  0.555E-05  0.555E-05
   1.902  0.591E-05  0.591E-05
   1.912  0.641E-05  0.641E-05
   1.922  0.697E-05  0.697E-05
   1.932  0.753E-05  0.753E-05
   1.942  0.801E-05  0.801E-05
   1.952  0.833E-05  0.833E-05
   1.962  0.843E-05  0.843E-05
   1.972  0.830E-05  0.830E-05
   1.982  0.798E-05  0.798E-05
   1.992  0.752E-05  0.752E-05
   2.002  0.703E-05  0.703E-05
   2.012  0.661E-05  0.661E-05
   2.022  0.636E-05  0.636E-05
   2.032  0.634E-05  0.634E-05
   2.042  0.658E-05  0.658E-05
   2.052  0.705E-05  0.705E-05
   2.062  0.769E-05  0.769E-05
   2.072  0.841E-05  0.841E-05
   2.082  0.911E-05  0.911E-05
   2.092  0.968E-05  0.968E-05
   2.102  0.101E-04  0.101E-04
   2.112  0.102E-04  0.102E-04
   2.122  0.999E-05  0.999E-05
   2.132  0.955E-05  0.955E-05
   2.142  0.890E-05  0.890E-05
   2.152  0.810E-05  0.810E-05
   2.162  0.725E-05  0.725E-05
   2.172  0.642E-05  0.642E-05
   2.182  0.572E-05  0.572E-05
   2.192  0.519E-05  0.519E-05
   2.202  0.490E-05  0.490E-05
   2.212  0.486E-05  0.486E-05
   2.222  0.508E-05  0.508E-05
   2.232  0.556E-05  0.556E-05
   2.242  0.626E-05  0.626E-05
   2.252  0.715E-05  0.715E-05
   2.262  0.816E-05  0.816E-05
   2.272  0.923E-05  0.923E-05
   2.282  0.103E-04  0.103E-04
   2.292  0.111E-04  0.111E-04
   2.302  0.118E-04  0.118E-04
   2.312  0.121E-04  0.121E-04
   2.322  0.120E-04  0.120E-04
   2.332  0.116E-04  0.116E-04
   2.342  0.109E-04  0.109E-04
   2.352  0.101E-04  0.101E-04
   2.362  0.922E-05  0.922E-05
   2.372  0.849E-05  0.849E-05
   2.382  0.797E-05  0.797E-05
   2.392  0.773E-05  0.773E-05
   2.402  0.775E-05  0.775E-05
   2.412  0.801E-05  0.801E-05
   2.422  0.846E-05  0.846E-05
   2.432  0.908E-05  0.908E-05
   2.442  0.986E-05  0.986E-05
   2.452  0.109E-04  0.109E-04
   2.462  0.123E-04  0.123E-04
   2.472  0.144E-04  0.144E-04
   2.482  0.176E-04  0.176E-04
   2.492  0.225E-04  0.225E-04
   2.502  0.298E-04  0.298E-04
   2.512  0.405E-04  0.405E-04
   2.522  0.554E-04  0.554E-04
   2.532  0.756E-04  0.756E-04
   2.542  0.102E-03  0.102E-03
   2.552  0.133E-03  0.133E-03
   2.562  0.170E-03  0.170E-03
   2.572  0.210E-03  0.210E-03
   2.582  0.252E-03  0.252E-03
   2.592  0.292E-03  0.292E-03
   2.602  0.327E-03  0.327E-03
   2.612  0.356E-03  0.356E-03
   2.622  0.376E-03  0.376E-03
   2.632  0.386E-03  0.386E-03
   2.642  0.387E-03  0.387E-03
   2.652  0.381E-03  0.381E-03
   2.662  0.369E-03  0.369E-03
   2.672  0.353E-03  0.353E-03
   2.682  0.336E-03  0.336E-03
   2.692  0.318E-03  0.318E-03
   2.702  0.300E-03  0.300E-03
   2.712  0.284E-03  0.284E-03
   2.722  0.269E-03  0.269E-03
   2.732  0.255E-03  0.255E-03
   2.742  0.243E-03  0.243E-03
   2.752  0.231E-03  0.231E-03
   2.762  0.220E-03  0.220E-03
   2.772  0.210E-03  0.210E-03
   2.782  0.200E-03  0.200E-03
   2.792  0.191E-03  0.191E-03
   2.802  0.183E-03  0.183E-03
   2.812  0.176E-03  0.176E-03
   2.822  0.170E-03  0.170E-03
   2.832  0.164E-03  0.164E-03
   2.842  0.158E-03  0.158E-03
   2.852  0.152E-03  0.152E-03
   2.862  0.146E-03  0.146E-03
   2.872  0.141E-03  0.141E-03
   2.882  0.136E-03  0.136E-03
   2.892  0.132E-03  0.132E-03
   2.902  0.128E-03  0.128E-03
   2.912  0.125E-03  0.125E-03
   2.922  0.121E-03  0.121E-03
   2.932  0.117E-03  0.117E-03
   2.942  0.114E-03  0.114E-03
   2.952  0.111E-03  0.111E-03
   2.962  0.109E-03  0.109E-03
   2.972  0.109E-03  0.109E-03
   2.982  0.111E-03  0.111E-03
   2.992  0.115E-03  0.115E-03
   3.002  0.120E-03  0.120E-03
   3.012  0.125E-03  0.125E-03
   3.022  0.129E-03  0.129E-03
   3.032  0.132E-03  0.132E-03
   3.042  0.133E-03  0.133E-03
   3.052  0.132E-03  0.132E-03
   3.062  0.128E-03  0.128E-03
   3.072  0.124E-03  0.124E-03
   3.082  0.118E-03  0.118E-03
   3.092  0.113E-03  0.113E-03
   3.102  0.107E-03  0.107E-03
   3.112  0.103E-03  0.103E-03
   3.122  0.980E-04  0.980E-04
   3.132  0.934E-04  0.934E-04
   3.142  0.888E-04  0.888E-04
   3.152  0.839E-04  0.839E-04
   3.162  0.787E-04  0.787E-04
   3.172  0.733E-04  0.733E-04
   3.182  0.681E-04  0.681E-04
   3.192  0.632E-04  0.632E-04
   3.202  0.590E-04  0.590E-04
   3.212  0.558E-04  0.558E-04
   3.222  0.536E-04  0.536E-04
   3.232  0.524E-04  0.524E-04
   3.242  0.519E-04  0.519E-04
   3.252  0.518E-04  0.518E-04
   3.262  0.516E-04  0.516E-04
   3.272  0.510E-04  0.510E-04
   3.282  0.498E-04  0.498E-04
   3.292  0.481E-04  0.481E-04
   3.302  0.458E-04  0.458E-04
   3.312  0.433E-04  0.433E-04
   3.322  0.407E-04  0.407E-04
   3.332  0.384E-04  0.384E-04
   3.342  0.365E-04  0.365E-04
   3.352  0.351E-04  0.351E-04
   3.362  0.342E-04  0.342E-04
   3.372  0.337E-04  0.337E-04
   3.382  0.335E-04  0.335E-04
   3.392  0.335E-04  0.335E-04
   3.402  0.334E-04  0.334E-04
   3.412  0.332E-04  0.332E-04
   3.422  0.327E-04  0.327E-04
   3.432  0.318E-04  0.318E-04
   3.442  0.306E-04  0.306E-04
   3.452  0.290E-04  0.290E-04
   3.462  0.272E-04  0.272E-04
   3.472  0.251E-04  0.251E-04
   3.482  0.231E-04  0.231E-04
   3.492  0.213E-04  0.213E-04
   3.502  0.197E-04  0.197E-04
   3.512  0.185E-04  0.185E-04
   3.522  0.177E-04  0.177E-04
   3.532  0.173E-04  0.173E-04
   3.542  0.174E-04  0.174E-04
   3.552  0.177E-04  0.177E-04
   3.562  0.181E-04  0.181E-04
   3.572  0.186E-04  0.186E-04
   3.582  0.189E-04  0.189E-04
   3.592  0.191E-04  0.191E-04
   3.602  0.191E-04  0.191E-04
   3.612  0.189E-04  0.189E-04
   3.622  0.187E-04  0.187E-04
   3.632  0.187E-04  0.187E-04
   3.642  0.189E-04  0.189E-04
   3.652  0.195E-04  0.195E-04
   3.662  0.204E-04  0.204E-04
   3.672  0.216E-04  0.216E-04
   3.682  0.229E-04  0.229E-04
   3.692  0.243E-04  0.243E-04
   3.702  0.254E-04  0.254E-04
   3.712  0.261E-04  0.261E-04
   3.722  0.263E-04  0.263E-04
   3.732  0.261E-04  0.261E-04
   3.742  0.254E-04  0.254E-04
   3.752  0.244E-04  0.244E-04
   3.762  0.234E-04  0.234E-04
   3.772  0.225E-04  0.225E-04
   3.782  0.219E-04  0.219E-04
   3.792  0.217E-04  0.217E-04
   3.802  0.221E-04  0.221E-04
   3.812  0.229E-04  0.229E-04
   3.822  0.240E-04  0.240E-04
   3.832  0.252E-04  0.252E-04
   3.842  0.263E-04  0.263E-04
   3.852  0.271E-04  0.271E-04
   3.862  0.275E-04  0.275E-04
   3.872  0.275E-04  0.275E-04
   3.882  0.270E-04  0.270E-04
   3.892  0.263E-04  0.263E-04
   3.902  0.255E-04  0.255E-04
   3.912  0.248E-04  0.248E-04
   3.922  0.243E-04  0.243E-04
   3.932  0.242E-04  0.242E-04
   3.942  0.244E-04  0.244E-04
   3.952  0.248E-04  0.248E-04
   3.962  0.255E-04  0.255E-04
   3.972  0.263E-04  0.263E-04
   3.982  0.275E-04  0.275E-04
   3.992  0.290E-04  0.290E-04
   4.002  0.312E-04  0.312E-04
   4.012  0.344E-04  0.344E-04
   4.022  0.389E-04  0.389E-04
   4.032  0.449E-04  0.449E-04
   4.042  0.524E-04  0.524E-04
   4.052  0.612E-04  0.612E-04
   4.062  0.710E-04  0.710E-04
   4.072  0.811E-04  0.811E-04
   4.082  0.908E-04  0.908E-04
   4.092  0.993E-04  0.993E-04
   4.102  0.106E-03  0.106E-03
   4.112  0.110E-03  0.110E-03
   4.122  0.112E-03  0.112E-03
   4.132  0.111E-03  0.111E-03
   4.142  0.109E-03  0.109E-03
   4.152  0.104E-03  0.104E-03
   4.162  0.987E-04  0.987E-04
   4.172  0.925E-04  0.925E-04
   4.182  0.862E-04  0.862E-04
   4.192  0.805E-04  0.805E-04
   4.202  0.757E-04  0.757E-04
   4.212  0.723E-04  0.723E-04
   4.222  0.706E-04  0.706E-04
   4.232  0.705E-04  0.705E-04
   4.242  0.719E-04  0.719E-04
   4.252  0.744E-04  0.744E-04
   4.262  0.775E-04  0.775E-04
   4.272  0.807E-04  0.807E-04
   4.282  0.835E-04  0.835E-04
   4.292  0.856E-04  0.856E-04
   4.302  0.866E-04  0.866E-04
   4.312  0.866E-04  0.866E-04
   4.322  0.855E-04  0.855E-04
   4.332  0.836E-04  0.836E-04
   4.342  0.810E-04  0.810E-04
   4.352  0.782E-04  0.782E-04
   4.362  0.753E-04  0.753E-04
   4.372  0.728E-04  0.728E-04
   4.382  0.708E-04  0.708E-04
   4.392  0.693E-04  0.693E-04
   4.402  0.683E-04  0.683E-04
   4.412  0.678E-04  0.678E-04
   4.422  0.674E-04  0.674E-04
   4.432  0.673E-04  0.673E-04
   4.442  0.673E-04  0.673E-04
   4.452  0.677E-04  0.677E-04
   4.462  0.688E-04  0.688E-04
   4.472  0.705E-04  0.705E-04
   4.482  0.731E-04  0.731E-04
   4.492  0.762E-04  0.762E-04
   4.502  0.796E-04  0.796E-04
   4.512  0.827E-04  0.827E-04
   4.522  0.851E-04  0.851E-04
   4.532  0.862E-04  0.862E-04
   4.542  0.859E-04  0.859E-04
   4.552  0.842E-04  0.842E-04
   4.562  0.810E-04  0.810E-04
   4.572  0.768E-04  0.768E-04
   4.582  0.718E-04  0.718E-04
   4.592  0.663E-04  0.663E-04
   4.602  0.609E-04  0.609E-04
   4.612  0.558E-04  0.558E-04
   4.622  0.515E-04  0.515E-04
   4.632  0.483E-04  0.483E-04
   4.642  0.466E-04  0.466E-04
   4.652  0.465E-04  0.465E-04
   4.662  0.481E-04  0.481E-04
   4.672  0.511E-04  0.511E-04
   4.682  0.553E-04  0.553E-04
   4.692  0.601E-04  0.601E-04
   4.702  0.651E-04  0.651E-04
   4.712  0.699E-04  0.699E-04
   4.722  0.741E-04  0.741E-04
   4.732  0.774E-04  0.774E-04
   4.742  0.798E-04  0.798E-04
   4.752  0.814E-04  0.814E-04
   4.762  0.821E-04  0.821E-04
   4.772  0.821E-04  0.821E-04
   4.782  0.815E-04  0.815E-04
   4.792  0.805E-04  0.805E-04
   4.802  0.791E-04  0.791E-04
   4.812  0.774E-04  0.774E-04
   4.822  0.752E-04  0.752E-04
   4.832  0.726E-04  0.726E-04
   4.842  0.695E-04  0.695E-04
   4.852  0.660E-04  0.660E-04
   4.862  0.624E-04  0.624E-04
   4.872  0.589E-04  0.589E-04
   4.882  0.559E-04  0.559E-04
   4.892  0.538E-04  0.538E-04
   4.902  0.530E-04  0.530E-04
   4.912  0.538E-04  0.538E-04
   4.922  0.560E-04  0.560E-04
   4.932  0.596E-04  0.596E-04
   4.942  0.641E-04  0.641E-04
   4.952  0.691E-04  0.691E-04
   4.962  0.739E-04  0.739E-04
   4.972  0.779E-04  0.779E-04
   4.982  0.808E-04  0.808E-04
   4.992  0.823E-04  0.823E-04
   5.002  0.821E-04  0.821E-04
   5.012  0.803E-04  0.803E-04
   5.022  0.772E-04  0.772E-04
   5.032  0.730E-04  0.730E-04
   5.042  0.682E-04  0.682E-04
   5.052  0.633E-04  0.633E-04
   5.062  0.587E-04  0.587E-04
   5.072  0.551E-04  0.551E-04
   5.082  0.529E-04  0.529E-04
   5.092  0.522E-04  0.522E-04
   5.102  0.532E-04  0.532E-04
   5.112  0.558E-04  0.558E-04
   5.122  0.596E-04  0.596E-04
   5.132  0.644E-04  0.644E-04
   5.142  0.696E-04  0.696E-04
   5.152  0.751E-04  0.751E-04
   5.162  0.807E-04  0.807E-04
   5.172  0.864E-04  0.864E-04
   5.182  0.922E-04  0.922E-04
   5.192  0.983E-04  0.983E-04
   5.202  0.104E-03  0.104E-03
   5.212  0.110E-03  0.110E-03
   5.222  0.115E-03  0.115E-03
   5.232  0.119E-03  0.119E-03
   5.242  0.121E-03  0.121E-03
   5.252  0.120E-03  0.120E-03
   5.262  0.118E-03  0.118E-03
   5.272  0.113E-03  0.113E-03
   5.282  0.106E-03  0.106E-03
   5.292  0.980E-04  0.980E-04
   5.302  0.900E-04  0.900E-04
   5.312  0.827E-04  0.827E-04
   5.322  0.770E-04  0.770E-04
   5.332  0.736E-04  0.736E-04
   5.342  0.730E-04  0.730E-04
   5.352  0.750E-04  0.750E-04
   5.362  0.793E-04  0.793E-04
   5.372  0.852E-04  0.852E-04
   5.382  0.916E-04  0.916E-04
   5.392  0.974E-04  0.974E-04
   5.402  0.102E-03  0.102E-03
   5.412  0.104E-03  0.104E-03
   5.422  0.103E-03  0.103E-03
   5.432  0.101E-03  0.101E-03
   5.442  0.967E-04  0.967E-04
   5.452  0.918E-04  0.918E-04
   5.462  0.868E-04  0.868E-04
   5.472  0.824E-04  0.824E-04
   5.482  0.790E-04  0.790E-04
   5.492  0.768E-04  0.768E-04
   5.502  0.757E-04  0.757E-04
   5.512  0.755E-04  0.755E-04
   5.522  0.759E-04  0.759E-04
   5.532  0.768E-04  0.768E-04
   5.542  0.779E-04  0.779E-04
   5.552  0.794E-04  0.794E-04
   5.562  0.812E-04  0.812E-04
   5.572  0.836E-04  0.836E-04
   5.582  0.872E-04  0.872E-04
   5.592  0.926E-04  0.926E-04
   5.602  0.101E-03  0.101E-03
   5.612  0.112E-03  0.112E-03
   5.622  0.128E-03  0.128E-03
   5.632  0.148E-03  0.148E-03
   5.642  0.172E-03  0.172E-03
   5.652  0.200E-03  0.200E-03
   5.662  0.230E-03  0.230E-03
   5.672  0.261E-03  0.261E-03
   5.682  0.290E-03  0.290E-03
   5.692  0.316E-03  0.316E-03
   5.702  0.337E-03  0.337E-03
   5.712  0.353E-03  0.353E-03
   5.722  0.364E-03  0.364E-03
   5.732  0.370E-03  0.370E-03
   5.742  0.372E-03  0.372E-03
   5.752  0.372E-03  0.372E-03
   5.762  0.370E-03  0.370E-03
   5.772  0.369E-03  0.369E-03
   5.782  0.370E-03  0.370E-03
   5.792  0.372E-03  0.372E-03
   5.802  0.377E-03  0.377E-03
   5.812  0.383E-03  0.383E-03
   5.822  0.390E-03  0.390E-03
   5.832  0.395E-03  0.395E-03
   5.842  0.399E-03  0.399E-03
   5.852  0.401E-03  0.401E-03
   5.862  0.400E-03  0.400E-03
   5.872  0.399E-03  0.399E-03
   5.882  0.397E-03  0.397E-03
   5.892  0.398E-03  0.398E-03
   5.902  0.401E-03  0.401E-03
   5.912  0.406E-03  0.406E-03
   5.922  0.412E-03  0.412E-03
   5.932  0.418E-03  0.418E-03
   5.942  0.422E-03  0.422E-03
   5.952  0.423E-03  0.423E-03
   5.962  0.418E-03  0.418E-03
   5.972  0.408E-03  0.408E-03
   5.982  0.395E-03  0.395E-03
   5.992  0.379E-03  0.379E-03
   6.002  0.363E-03  0.363E-03
   6.012  0.349E-03  0.349E-03
   6.022  0.341E-03  0.341E-03
   6.032  0.340E-03  0.340E-03
   6.042  0.346E-03  0.346E-03
   6.052  0.358E-03  0.358E-03
   6.062  0.376E-03  0.376E-03
   6.072  0.394E-03  0.394E-03
   6.082  0.411E-03  0.411E-03
   6.092  0.424E-03  0.424E-03
   6.102  0.430E-03  0.430E-03
   6.112  0.429E-03  0.429E-03
   6.122  0.422E-03  0.422E-03
   6.132  0.410E-03  0.410E-03
   6.142  0.398E-03  0.398E-03
   6.152  0.388E-03  0.388E-03
   6.162  0.383E-03  0.383E-03
   6.172  0.384E-03  0.384E-03
   6.182  0.391E-03  0.391E-03
   6.192  0.405E-03  0.405E-03
   6.202  0.424E-03  0.424E-03
   6.212  0.445E-03  0.445E-03
   6.222  0.468E-03  0.468E-03
   6.232  0.491E-03  0.491E-03
   6.242  0.511E-03  0.511E-03
   6.252  0.529E-03  0.529E-03
   6.262  0.541E-03  0.541E-03
   6.272  0.549E-03  0.549E-03
   6.282  0.551E-03  0.551E-03
   6.292  0.548E-03  0.548E-03
   6.302  0.540E-03  0.540E-03
   6.312  0.529E-03  0.529E-03
   6.322  0.518E-03  0.518E-03
   6.332  0.510E-03  0.510E-03
   6.342  0.506E-03  0.506E-03
   6.352  0.510E-03  0.510E-03
   6.362  0.523E-03  0.523E-03
   6.372  0.545E-03  0.545E-03
   6.382  0.576E-03  0.576E-03
   6.392  0.614E-03  0.614E-03
   6.402  0.654E-03  0.654E-03
   6.412  0.692E-03  0.692E-03
   6.422  0.722E-03  0.722E-03
   6.432  0.741E-03  0.741E-03
   6.442  0.745E-03  0.745E-03
   6.452  0.734E-03  0.734E-03
   6.462  0.711E-03  0.711E-03
   6.472  0.681E-03  0.681E-03
   6.482  0.652E-03  0.652E-03
   6.492  0.630E-03  0.630E-03
   6.502  0.624E-03  0.624E-03
   6.512  0.637E-03  0.637E-03
   6.522  0.671E-03  0.671E-03
   6.532  0.724E-03  0.724E-03
   6.542  0.794E-03  0.794E-03
   6.552  0.874E-03  0.874E-03
   6.562  0.957E-03  0.957E-03
   6.572  0.104E-02  0.104E-02
   6.582  0.111E-02  0.111E-02
   6.592  0.117E-02  0.117E-02
   6.602  0.121E-02  0.121E-02
   6.612  0.124E-02  0.124E-02
   6.622  0.126E-02  0.126E-02
   6.632  0.128E-02  0.128E-02
   6.642  0.134E-02  0.134E-02
   6.652  0.146E-02  0.146E-02
   6.662  0.171E-02  0.171E-02
   6.672  0.218E-02  0.218E-02
   6.682  0.299E-02  0.299E-02
   6.692  0.431E-02  0.431E-02
   6.702  0.634E-02  0.634E-02
   6.712  0.933E-02  0.933E-02
   6.722  0.135E-01  0.135E-01
   6.732  0.191E-01  0.191E-01
   6.742  0.262E-01  0.262E-01
   6.752  0.347E-01  0.347E-01
   6.762  0.445E-01  0.445E-01
   6.772  0.551E-01  0.551E-01
   6.782  0.659E-01  0.659E-01
   6.792  0.761E-01  0.761E-01
   6.802  0.853E-01  0.853E-01
   6.812  0.928E-01  0.928E-01
   6.822  0.984E-01  0.984E-01
   6.832  0.102E+00  0.102E+00
   6.842  0.105E+00  0.105E+00
   6.852  0.106E+00  0.106E+00
   6.862  0.108E+00  0.108E+00
   6.872  0.109E+00  0.109E+00
   6.882  0.110E+00  0.110E+00
   6.892  0.112E+00  0.112E+00
   6.902  0.112E+00  0.112E+00
   6.912  0.112E+00  0.112E+00
   6.922  0.111E+00  0.111E+00
   6.932  0.109E+00  0.109E+00
   6.942  0.106E+00  0.106E+00
   6.952  0.103E+00  0.103E+00
   6.962  0.102E+00  0.102E+00
   6.972  0.103E+00  0.103E+00
   6.982  0.108E+00  0.108E+00
   6.992  0.115E+00  0.115E+00
   7.002  0.126E+00  0.126E+00
   7.012  0.139E+00  0.139E+00
   7.022  0.152E+00  0.152E+00
   7.032  0.164E+00  0.164E+00
   7.042  0.174E+00  0.174E+00
   7.052  0.181E+00  0.181E+00
   7.062  0.185E+00  0.185E+00
   7.072  0.186E+00  0.186E+00
   7.082  0.184E+00  0.184E+00
   7.092  0.181E+00  0.181E+00
   7.102  0.178E+00  0.178E+00
   7.112  0.174E+00  0.174E+00
   7.122  0.170E+00  0.170E+00
   7.132  0.166E+00  0.166E+00
   7.142  0.162E+00  0.162E+00
   7.152  0.157E+00  0.157E+00
   7.162  0.152E+00  0.152E+00
   7.172  0.148E+00  0.148E+00
   7.182  0.144E+00  0.144E+00
   7.192  0.143E+00  0.143E+00
   7.202  0.144E+00  0.144E+00
   7.212  0.148E+00  0.148E+00
   7.222  0.154E+00  0.154E+00
   7.232  0.163E+00  0.163E+00
   7.242  0.173E+00  0.173E+00
   7.252  0.183E+00  0.183E+00
   7.262  0.192E+00  0.192E+00
   7.272  0.199E+00  0.199E+00
   7.282  0.203E+00  0.203E+00
   7.292  0.204E+00  0.204E+00
   7.302  0.203E+00  0.203E+00
   7.312  0.199E+00  0.199E+00
   7.322  0.193E+00  0.193E+00
   7.332  0.186E+00  0.186E+00
   7.342  0.177E+00  0.177E+00
   7.352  0.168E+00  0.168E+00
   7.362  0.158E+00  0.158E+00
   7.372  0.148E+00  0.148E+00
   7.382  0.138E+00  0.138E+00
   7.392  0.131E+00  0.131E+00
   7.402  0.126E+00  0.126E+00
   7.412  0.124E+00  0.124E+00
   7.422  0.127E+00  0.127E+00
   7.432  0.134E+00  0.134E+00
   7.442  0.145E+00  0.145E+00
   7.452  0.160E+00  0.160E+00
   7.462  0.176E+00  0.176E+00
   7.472  0.193E+00  0.193E+00
   7.482  0.208E+00  0.208E+00
   7.492  0.221E+00  0.221E+00
   7.502  0.229E+00  0.229E+00
   7.512  0.232E+00  0.232E+00
   7.522  0.230E+00  0.230E+00
   7.532  0.222E+00  0.222E+00
   7.542  0.210E+00  0.210E+00
   7.552  0.194E+00  0.194E+00
   7.562  0.176E+00  0.176E+00
   7.572  0.157E+00  0.157E+00
   7.582  0.139E+00  0.139E+00
   7.592  0.122E+00  0.122E+00
   7.602  0.108E+00  0.108E+00
   7.612  0.983E-01  0.983E-01
   7.622  0.925E-01  0.925E-01
   7.632  0.910E-01  0.910E-01
   7.642  0.934E-01  0.934E-01
   7.652  0.990E-01  0.990E-01
   7.662  0.107E+00  0.107E+00
   7.672  0.117E+00  0.117E+00
   7.682  0.127E+00  0.127E+00
   7.692  0.138E+00  0.138E+00
   7.702  0.150E+00  0.150E+00
   7.712  0.161E+00  0.161E+00
   7.722  0.172E+00  0.172E+00
   7.732  0.182E+00  0.182E+00
   7.742  0.190E+00  0.190E+00
   7.752  0.197E+00  0.197E+00
   7.762  0.200E+00  0.200E+00
   7.772  0.201E+00  0.201E+00
   7.782  0.198E+00  0.198E+00
   7.792  0.192E+00  0.192E+00
   7.802  0.184E+00  0.184E+00
   7.812  0.175E+00  0.175E+00
   7.822  0.166E+00  0.166E+00
   7.832  0.157E+00  0.157E+00
   7.842  0.151E+00  0.151E+00
   7.852  0.148E+00  0.148E+00
   7.862  0.146E+00  0.146E+00
   7.872  0.146E+00  0.146E+00
   7.882  0.147E+00  0.147E+00
   7.892  0.148E+00  0.148E+00
   7.902  0.148E+00  0.148E+00
   7.912  0.148E+00  0.148E+00
   7.922  0.146E+00  0.146E+00
   7.932  0.144E+00  0.144E+00
   7.942  0.141E+00  0.141E+00
   7.952  0.138E+00  0.138E+00
   7.962  0.135E+00  0.135E+00
   7.972  0.133E+00  0.133E+00
   7.982  0.132E+00  0.132E+00
   7.992  0.133E+00  0.133E+00
   8.002  0.135E+00  0.135E+00
   8.012  0.139E+00  0.139E+00
   8.022  0.143E+00  0.143E+00
   8.032  0.148E+00  0.148E+00
   8.042  0.152E+00  0.152E+00
   8.052  0.156E+00  0.156E+00
   8.062  0.159E+00  0.159E+00
   8.072  0.161E+00  0.161E+00
   8.082  0.161E+00  0.161E+00
   8.092  0.161E+00  0.161E+00
   8.102  0.159E+00  0.159E+00
   8.112  0.156E+00  0.156E+00
   8.122  0.152E+00  0.152E+00
   8.132  0.147E+00  0.147E+00
   8.142  0.140E+00  0.140E+00
   8.152  0.132E+00  0.132E+00
   8.162  0.124E+00  0.124E+00
   8.172  0.115E+00  0.115E+00
   8.182  0.106E+00  0.106E+00
   8.192  0.975E-01  0.975E-01
   8.202  0.890E-01  0.890E-01
   8.212  0.810E-01  0.810E-01
   8.222  0.738E-01  0.738E-01
   8.232  0.674E-01  0.674E-01
   8.242  0.623E-01  0.623E-01
   8.252  0.589E-01  0.589E-01
   8.262  0.575E-01  0.575E-01
   8.272  0.586E-01  0.586E-01
   8.282  0.621E-01  0.621E-01
   8.292  0.681E-01  0.681E-01
   8.302  0.760E-01  0.760E-01
   8.312  0.852E-01  0.852E-01
   8.322  0.947E-01  0.947E-01
   8.332  0.103E+00  0.103E+00
   8.342  0.110E+00  0.110E+00
   8.352  0.115E+00  0.115E+00
   8.362  0.117E+00  0.117E+00
   8.372  0.116E+00  0.116E+00
   8.382  0.113E+00  0.113E+00
   8.392  0.109E+00  0.109E+00
   8.402  0.104E+00  0.104E+00
   8.412  0.992E-01  0.992E-01
   8.422  0.965E-01  0.965E-01
   8.432  0.958E-01  0.958E-01
   8.442  0.973E-01  0.973E-01
   8.452  0.100E+00  0.100E+00
   8.462  0.104E+00  0.104E+00
   8.472  0.107E+00  0.107E+00
   8.482  0.109E+00  0.109E+00
   8.492  0.107E+00  0.107E+00
   8.502  0.103E+00  0.103E+00
   8.512  0.949E-01  0.949E-01
   8.522  0.843E-01  0.843E-01
   8.532  0.722E-01  0.722E-01
   8.542  0.596E-01  0.596E-01
   8.552  0.482E-01  0.482E-01
   8.562  0.389E-01  0.389E-01
   8.572  0.327E-01  0.327E-01
   8.582  0.300E-01  0.300E-01
   8.592  0.309E-01  0.309E-01
   8.602  0.348E-01  0.348E-01
   8.612  0.410E-01  0.410E-01
   8.622  0.486E-01  0.486E-01
   8.632  0.567E-01  0.567E-01
   8.642  0.643E-01  0.643E-01
   8.652  0.709E-01  0.709E-01
   8.662  0.762E-01  0.762E-01
   8.672  0.802E-01  0.802E-01
   8.682  0.831E-01  0.831E-01
   8.692  0.854E-01  0.854E-01
   8.702  0.872E-01  0.872E-01
   8.712  0.888E-01  0.888E-01
   8.722  0.899E-01  0.899E-01
   8.732  0.902E-01  0.902E-01
   8.742  0.894E-01  0.894E-01
   8.752  0.873E-01  0.873E-01
   8.762  0.838E-01  0.838E-01
   8.772  0.795E-01  0.795E-01
   8.782  0.749E-01  0.749E-01
   8.792  0.711E-01  0.711E-01
   8.802  0.686E-01  0.686E-01
   8.812  0.679E-01  0.679E-01
   8.822  0.688E-01  0.688E-01
   8.832  0.709E-01  0.709E-01
   8.842  0.732E-01  0.732E-01
   8.852  0.748E-01  0.748E-01
   8.862  0.749E-01  0.749E-01
   8.872  0.731E-01  0.731E-01
   8.882  0.695E-01  0.695E-01
   8.892  0.647E-01  0.647E-01
   8.902  0.594E-01  0.594E-01
   8.912  0.546E-01  0.546E-01
   8.922  0.513E-01  0.513E-01
   8.932  0.499E-01  0.499E-01
   8.942  0.505E-01  0.505E-01
   8.952  0.529E-01  0.529E-01
   8.962  0.564E-01  0.564E-01
   8.972  0.601E-01  0.601E-01
   8.982  0.633E-01  0.633E-01
   8.992  0.651E-01  0.651E-01
   9.002  0.653E-01  0.653E-01
   9.012  0.636E-01  0.636E-01
   9.022  0.604E-01  0.604E-01
   9.032  0.560E-01  0.560E-01
   9.042  0.513E-01  0.513E-01
   9.052  0.468E-01  0.468E-01
   9.062  0.435E-01  0.435E-01
   9.072  0.418E-01  0.418E-01
   9.082  0.421E-01  0.421E-01
   9.092  0.442E-01  0.442E-01
   9.102  0.477E-01  0.477E-01
   9.112  0.520E-01  0.520E-01
   9.122  0.562E-01  0.562E-01
   9.132  0.594E-01  0.594E-01
   9.142  0.611E-01  0.611E-01
   9.152  0.612E-01  0.612E-01
   9.162  0.599E-01  0.599E-01
   9.172  0.580E-01  0.580E-01
   9.182  0.563E-01  0.563E-01
   9.192  0.558E-01  0.558E-01
   9.202  0.571E-01  0.571E-01
   9.212  0.604E-01  0.604E-01
   9.222  0.654E-01  0.654E-01
   9.232  0.714E-01  0.714E-01
   9.242  0.772E-01  0.772E-01
   9.252  0.818E-01  0.818E-01
   9.262  0.844E-01  0.844E-01
   9.272  0.845E-01  0.845E-01
   9.282  0.823E-01  0.823E-01
   9.292  0.780E-01  0.780E-01
   9.302  0.723E-01  0.723E-01
   9.312  0.659E-01  0.659E-01
   9.322  0.595E-01  0.595E-01
   9.332  0.534E-01  0.534E-01
   9.342  0.479E-01  0.479E-01
   9.352  0.431E-01  0.431E-01
   9.362  0.390E-01  0.390E-01
   9.372  0.358E-01  0.358E-01
   9.382  0.332E-01  0.332E-01
   9.392  0.314E-01  0.314E-01
   9.402  0.302E-01  0.302E-01
   9.412  0.294E-01  0.294E-01
   9.422  0.289E-01  0.289E-01
   9.432  0.286E-01  0.286E-01
   9.442  0.285E-01  0.285E-01
   9.452  0.288E-01  0.288E-01
   9.462  0.294E-01  0.294E-01
   9.472  0.305E-01  0.305E-01
   9.482  0.322E-01  0.322E-01
   9.492  0.343E-01  0.343E-01
   9.502  0.367E-01  0.367E-01
   9.512  0.393E-01  0.393E-01
   9.522  0.418E-01  0.418E-01
   9.532  0.441E-01  0.441E-01
   9.542  0.464E-01  0.464E-01
   9.552  0.487E-01  0.487E-01
   9.562  0.514E-01  0.514E-01
   9.572  0.548E-01  0.548E-01
   9.582  0.590E-01  0.590E-01
   9.592  0.641E-01  0.641E-01
   9.602  0.700E-01  0.700E-01
   9.612  0.762E-01  0.762E-01
   9.622  0.819E-01  0.819E-01
   9.632  0.863E-01  0.863E-01
   9.642  0.884E-01  0.884E-01
   9.652  0.876E-01  0.876E-01
   9.662  0.834E-01  0.834E-01
   9.672  0.763E-01  0.763E-01
   9.682  0.668E-01  0.668E-01
   9.692  0.559E-01  0.559E-01
   9.702  0.448E-01  0.448E-01
   9.712  0.346E-01  0.346E-01
   9.722  0.262E-01  0.262E-01
   9.732  0.201E-01  0.201E-01
   9.742  0.165E-01  0.165E-01
   9.752  0.152E-01  0.152E-01
   9.762  0.160E-01  0.160E-01
   9.772  0.183E-01  0.183E-01
   9.782  0.217E-01  0.217E-01
   9.792  0.255E-01  0.255E-01
   9.802  0.292E-01  0.292E-01
   9.812  0.326E-01  0.326E-01
   9.822  0.351E-01  0.351E-01
   9.832  0.367E-01  0.367E-01
   9.842  0.373E-01  0.373E-01
   9.852  0.369E-01  0.369E-01
   9.862  0.358E-01  0.358E-01
   9.872  0.341E-01  0.341E-01
   9.882  0.321E-01  0.321E-01
   9.892  0.300E-01  0.300E-01
   9.902  0.284E-01  0.284E-01
   9.912  0.275E-01  0.275E-01
   9.922  0.278E-01  0.278E-01
   9.932  0.296E-01  0.296E-01
   9.942  0.330E-01  0.330E-01
   9.952  0.381E-01  0.381E-01
   9.962  0.446E-01  0.446E-01
   9.972  0.521E-01  0.521E-01
   9.982  0.598E-01  0.598E-01
   9.992  0.669E-01  0.669E-01
  10.002  0.726E-01  0.726E-01
  10.012  0.762E-01  0.762E-01
  10.022  0.772E-01  0.772E-01
  10.032  0.752E-01  0.752E-01
  10.042  0.705E-01  0.705E-01
  10.052  0.633E-01  0.633E-01
  10.062  0.546E-01  0.546E-01
  10.072  0.451E-01  0.451E-01
  10.082  0.360E-01  0.360E-01
  10.092  0.280E-01  0.280E-01
  10.102  0.217E-01  0.217E-01
  10.112  0.175E-01  0.175E-01
  10.122  0.154E-01  0.154E-01
  10.132  0.151E-01  0.151E-01
  10.142  0.163E-01  0.163E-01
  10.152  0.185E-01  0.185E-01
  10.162  0.214E-01  0.214E-01
  10.172  0.247E-01  0.247E-01
  10.182  0.281E-01  0.281E-01
  10.192  0.314E-01  0.314E-01
  10.202  0.345E-01  0.345E-01
  10.212  0.370E-01  0.370E-01
  10.222  0.387E-01  0.387E-01
  10.232  0.397E-01  0.397E-01
  10.242  0.398E-01  0.398E-01
  10.252  0.393E-01  0.393E-01
  10.262  0.382E-01  0.382E-01
  10.272  0.368E-01  0.368E-01
  10.282  0.354E-01  0.354E-01
  10.292  0.342E-01  0.342E-01
  10.302  0.331E-01  0.331E-01
  10.312  0.325E-01  0.325E-01
  10.322  0.322E-01  0.322E-01
  10.332  0.325E-01  0.325E-01
  10.342  0.333E-01  0.333E-01
  10.352  0.346E-01  0.346E-01
  10.362  0.364E-01  0.364E-01
  10.372  0.385E-01  0.385E-01
  10.382  0.406E-01  0.406E-01
  10.392  0.425E-01  0.425E-01
  10.402  0.439E-01  0.439E-01
  10.412  0.442E-01  0.442E-01
  10.422  0.435E-01  0.435E-01
  10.432  0.415E-01  0.415E-01
  10.442  0.383E-01  0.383E-01
  10.452  0.343E-01  0.343E-01
  10.462  0.297E-01  0.297E-01
  10.472  0.249E-01  0.249E-01
  10.482  0.204E-01  0.204E-01
  10.492  0.165E-01  0.165E-01
  10.502  0.135E-01  0.135E-01
  10.512  0.114E-01  0.114E-01
  10.522  0.102E-01  0.102E-01
  10.532  0.100E-01  0.100E-01
  10.542  0.106E-01  0.106E-01
  10.552  0.120E-01  0.120E-01
  10.562  0.141E-01  0.141E-01
  10.572  0.169E-01  0.169E-01
  10.582  0.204E-01  0.204E-01
  10.592  0.245E-01  0.245E-01
  10.602  0.292E-01  0.292E-01
  10.612  0.341E-01  0.341E-01
  10.622  0.391E-01  0.391E-01
  10.632  0.436E-01  0.436E-01
  10.642  0.472E-01  0.472E-01
  10.652  0.495E-01  0.495E-01
  10.662  0.503E-01  0.503E-01
  10.672  0.495E-01  0.495E-01
  10.682  0.473E-01  0.473E-01
  10.692  0.439E-01  0.439E-01
  10.702  0.397E-01  0.397E-01
  10.712  0.354E-01  0.354E-01
  10.722  0.315E-01  0.315E-01
  10.732  0.283E-01  0.283E-01
  10.742  0.262E-01  0.262E-01
  10.752  0.253E-01  0.253E-01
  10.762  0.256E-01  0.256E-01
  10.772  0.269E-01  0.269E-01
  10.782  0.289E-01  0.289E-01
  10.792  0.312E-01  0.312E-01
  10.802  0.333E-01  0.333E-01
  10.812  0.350E-01  0.350E-01
  10.822  0.359E-01  0.359E-01
  10.832  0.360E-01  0.360E-01
  10.842  0.351E-01  0.351E-01
  10.852  0.335E-01  0.335E-01
  10.862  0.311E-01  0.311E-01
  10.872  0.283E-01  0.283E-01
  10.882  0.253E-01  0.253E-01
  10.892  0.223E-01  0.223E-01
  10.902  0.194E-01  0.194E-01
  10.912  0.169E-01  0.169E-01
  10.922  0.151E-01  0.151E-01
  10.932  0.141E-01  0.141E-01
  10.942  0.141E-01  0.141E-01
  10.952  0.153E-01  0.153E-01
  10.962  0.178E-01  0.178E-01
  10.972  0.215E-01  0.215E-01
  10.982  0.264E-01  0.264E-01
  10.992  0.321E-01  0.321E-01
  11.002  0.381E-01  0.381E-01
  11.012  0.439E-01  0.439E-01
  11.022  0.492E-01  0.492E-01
  11.032  0.534E-01  0.534E-01
  11.042  0.565E-01  0.565E-01
  11.052  0.584E-01  0.584E-01
  11.062  0.592E-01  0.592E-01
  11.072  0.590E-01  0.590E-01
  11.082  0.581E-01  0.581E-01
  11.092  0.564E-01  0.564E-01
  11.102  0.540E-01  0.540E-01
  11.112  0.508E-01  0.508E-01
  11.122  0.469E-01  0.469E-01
  11.132  0.424E-01  0.424E-01
  11.142  0.375E-01  0.375E-01
  11.152  0.328E-01  0.328E-01
  11.162  0.285E-01  0.285E-01
  11.172  0.249E-01  0.249E-01
  11.182  0.223E-01  0.223E-01
  11.192  0.206E-01  0.206E-01
  11.202  0.196E-01  0.196E-01
  11.212  0.192E-01  0.192E-01
  11.222  0.190E-01  0.190E-01
  11.232  0.187E-01  0.187E-01
  11.242  0.182E-01  0.182E-01
  11.252  0.173E-01  0.173E-01
  11.262  0.161E-01  0.161E-01
  11.272  0.147E-01  0.147E-01
  11.282  0.132E-01  0.132E-01
  11.292  0.119E-01  0.119E-01
  11.302  0.110E-01  0.110E-01
  11.312  0.106E-01  0.106E-01
  11.322  0.110E-01  0.110E-01
  11.332  0.121E-01  0.121E-01
  11.342  0.140E-01  0.140E-01
  11.352  0.166E-01  0.166E-01
  11.362  0.196E-01  0.196E-01
  11.372  0.227E-01  0.227E-01
  11.382  0.258E-01  0.258E-01
  11.392  0.285E-01  0.285E-01
  11.402  0.307E-01  0.307E-01
  11.412  0.323E-01  0.323E-01
  11.422  0.334E-01  0.334E-01
  11.432  0.343E-01  0.343E-01
  11.442  0.353E-01  0.353E-01
  11.452  0.366E-01  0.366E-01
  11.462  0.386E-01  0.386E-01
  11.472  0.412E-01  0.412E-01
  11.482  0.442E-01  0.442E-01
  11.492  0.470E-01  0.470E-01
  11.502  0.489E-01  0.489E-01
  11.512  0.495E-01  0.495E-01
  11.522  0.483E-01  0.483E-01
  11.532  0.451E-01  0.451E-01
  11.542  0.403E-01  0.403E-01
  11.552  0.345E-01  0.345E-01
  11.562  0.284E-01  0.284E-01
  11.572  0.227E-01  0.227E-01
  11.582  0.182E-01  0.182E-01
  11.592  0.152E-01  0.152E-01
  11.602  0.139E-01  0.139E-01
  11.612  0.142E-01  0.142E-01
  11.622  0.158E-01  0.158E-01
  11.632  0.182E-01  0.182E-01
  11.642  0.212E-01  0.212E-01
  11.652  0.242E-01  0.242E-01
  11.662  0.269E-01  0.269E-01
  11.672  0.293E-01  0.293E-01
  11.682  0.310E-01  0.310E-01
  11.692  0.322E-01  0.322E-01
  11.702  0.327E-01  0.327E-01
  11.712  0.327E-01  0.327E-01
  11.722  0.321E-01  0.321E-01
  11.732  0.311E-01  0.311E-01
  11.742  0.297E-01  0.297E-01
  11.752  0.282E-01  0.282E-01
  11.762  0.267E-01  0.267E-01
  11.772  0.253E-01  0.253E-01
  11.782  0.243E-01  0.243E-01
  11.792  0.239E-01  0.239E-01
  11.802  0.241E-01  0.241E-01
  11.812  0.250E-01  0.250E-01
  11.822  0.265E-01  0.265E-01
  11.832  0.287E-01  0.287E-01
  11.842  0.314E-01  0.314E-01
  11.852  0.343E-01  0.343E-01
  11.862  0.371E-01  0.371E-01
  11.872  0.395E-01  0.395E-01
  11.882  0.413E-01  0.413E-01
  11.892  0.422E-01  0.422E-01
  11.902  0.421E-01  0.421E-01
  11.912  0.411E-01  0.411E-01
  11.922  0.393E-01  0.393E-01
  11.932  0.371E-01  0.371E-01
  11.942  0.349E-01  0.349E-01
  11.952  0.330E-01  0.330E-01
  11.962  0.314E-01  0.314E-01
  11.972  0.304E-01  0.304E-01
  11.982  0.298E-01  0.298E-01
  11.992  0.296E-01  0.296E-01
  12.002  0.298E-01  0.298E-01
  12.012  0.305E-01  0.305E-01
  12.022  0.315E-01  0.315E-01
  12.032  0.329E-01  0.329E-01
  12.042  0.347E-01  0.347E-01
  12.052  0.364E-01  0.364E-01
  12.062  0.379E-01  0.379E-01
  12.072  0.387E-01  0.387E-01
  12.082  0.386E-01  0.386E-01
  12.092  0.373E-01  0.373E-01
  12.102  0.348E-01  0.348E-01
  12.112  0.311E-01  0.311E-01
  12.122  0.265E-01  0.265E-01
  12.132  0.214E-01  0.214E-01
  12.142  0.163E-01  0.163E-01
  12.152  0.114E-01  0.114E-01
  12.162  0.717E-02  0.717E-02
  12.172  0.384E-02  0.384E-02
  12.182  0.152E-02  0.152E-02
  12.192  0.206E-03  0.206E-03
  12.202 -0.197E-03 -0.197E-03
  12.212  0.146E-03  0.146E-03
  12.222  0.104E-02  0.104E-02
  12.232  0.231E-02  0.231E-02
  12.242  0.379E-02  0.379E-02
  12.252  0.536E-02  0.536E-02
  12.262  0.690E-02  0.690E-02
  12.272  0.835E-02  0.835E-02
  12.282  0.963E-02  0.963E-02
  12.292  0.107E-01  0.107E-01
  12.302  0.115E-01  0.115E-01
  12.312  0.119E-01  0.119E-01
  12.322  0.121E-01  0.121E-01
  12.332  0.119E-01  0.119E-01
  12.342  0.114E-01  0.114E-01
  12.352  0.107E-01  0.107E-01
  12.362  0.974E-02  0.974E-02
  12.372  0.866E-02  0.866E-02
  12.382  0.751E-02  0.751E-02
  12.392  0.634E-02  0.634E-02
  12.402  0.519E-02  0.519E-02
  12.412  0.412E-02  0.412E-02
  12.422  0.314E-02  0.314E-02
  12.432  0.227E-02  0.227E-02
  12.442  0.152E-02  0.152E-02
  12.452  0.900E-03  0.900E-03
  12.462  0.421E-03  0.421E-03
  12.472  0.898E-04  0.898E-04
  12.482 -0.818E-04 -0.818E-04
  12.492 -0.818E-04 -0.818E-04
  12.502  0.100E-03  0.100E-03
  12.512  0.470E-03  0.470E-03
  12.522  0.103E-02  0.103E-02
  12.532  0.175E-02  0.175E-02
  12.542  0.262E-02  0.262E-02
  12.552  0.358E-02  0.358E-02
  12.562  0.454E-02  0.454E-02
  12.572  0.543E-02  0.543E-02
  12.582  0.617E-02  0.617E-02
  12.592  0.667E-02  0.667E-02
  12.602  0.692E-02  0.692E-02
  12.612  0.693E-02  0.693E-02
  12.622  0.676E-02  0.676E-02
  12.632  0.648E-02  0.648E-02
  12.642  0.617E-02  0.617E-02
  12.652  0.590E-02  0.590E-02
  12.662  0.567E-02  0.567E-02
  12.672  0.545E-02  0.545E-02
  12.682  0.521E-02  0.521E-02
  12.692  0.487E-02  0.487E-02
  12.702  0.442E-02  0.442E-02
  12.712  0.385E-02  0.385E-02
  12.722  0.323E-02  0.323E-02
  12.732  0.263E-02  0.263E-02
  12.742  0.216E-02  0.216E-02
  12.752  0.187E-02  0.187E-02
  12.762  0.179E-02  0.179E-02
  12.772  0.193E-02  0.193E-02
  12.782  0.222E-02  0.222E-02
  12.792  0.260E-02  0.260E-02
  12.802  0.300E-02  0.300E-02
  12.812  0.337E-02  0.337E-02
  12.822  0.370E-02  0.370E-02
  12.832  0.400E-02  0.400E-02
  12.842  0.430E-02  0.430E-02
  12.852  0.463E-02  0.463E-02
  12.862  0.500E-02  0.500E-02
  12.872  0.538E-02  0.538E-02
  12.882  0.570E-02  0.570E-02
  12.892  0.589E-02  0.589E-02
  12.902  0.587E-02  0.587E-02
  12.912  0.560E-02  0.560E-02
  12.922  0.509E-02  0.509E-02
  12.932  0.437E-02  0.437E-02
  12.942  0.354E-02  0.354E-02
  12.952  0.269E-02  0.269E-02
  12.962  0.192E-02  0.192E-02
  12.972  0.127E-02  0.127E-02
  12.982  0.775E-03  0.775E-03
  12.992  0.425E-03  0.425E-03
  13.002  0.191E-03  0.191E-03
  13.012  0.384E-04  0.384E-04
  13.022 -0.634E-04 -0.634E-04
  13.032 -0.134E-03 -0.134E-03
  13.042 -0.183E-03 -0.183E-03
  13.052 -0.214E-03 -0.214E-03
  13.062 -0.226E-03 -0.226E-03
  13.072 -0.220E-03 -0.220E-03
  13.082 -0.200E-03 -0.200E-03
  13.092 -0.170E-03 -0.170E-03
  13.102 -0.136E-03 -0.136E-03
  13.112 -0.102E-03 -0.102E-03
  13.122 -0.723E-04 -0.723E-04
  13.132 -0.485E-04 -0.485E-04
  13.142 -0.308E-04 -0.308E-04
  13.152 -0.186E-04 -0.186E-04
  13.162 -0.106E-04 -0.106E-04
  13.172 -0.579E-05 -0.579E-05
