# E (eV)   ldos(E)   pdos(E)   
 -21.530  0.769E-07  0.769E-07
 -21.520  0.225E-06  0.225E-06
 -21.510  0.631E-06  0.631E-06
 -21.500  0.170E-05  0.170E-05
 -21.490  0.437E-05  0.437E-05
 -21.480  0.108E-04  0.108E-04
 -21.470  0.255E-04  0.255E-04
 -21.460  0.578E-04  0.578E-04
 -21.450  0.125E-03  0.125E-03
 -21.440  0.261E-03  0.261E-03
 -21.430  0.522E-03  0.522E-03
 -21.420  0.999E-03  0.999E-03
 -21.410  0.183E-02  0.183E-02
 -21.400  0.323E-02  0.323E-02
 -21.390  0.545E-02  0.545E-02
 -21.380  0.884E-02  0.884E-02
 -21.370  0.138E-01  0.138E-01
 -21.360  0.206E-01  0.206E-01
 -21.350  0.295E-01  0.295E-01
 -21.340  0.408E-01  0.408E-01
 -21.330  0.542E-01  0.542E-01
 -21.320  0.694E-01  0.694E-01
 -21.310  0.856E-01  0.856E-01
 -21.300  0.102E+00  0.102E+00
 -21.290  0.118E+00  0.118E+00
 -21.280  0.131E+00  0.131E+00
 -21.270  0.143E+00  0.143E+00
 -21.260  0.151E+00  0.151E+00
 -21.250  0.156E+00  0.156E+00
 -21.240  0.159E+00  0.159E+00
 -21.230  0.159E+00  0.159E+00
 -21.220  0.158E+00  0.158E+00
 -21.210  0.156E+00  0.156E+00
 -21.200  0.153E+00  0.153E+00
 -21.190  0.151E+00  0.151E+00
 -21.180  0.148E+00  0.148E+00
 -21.170  0.146E+00  0.146E+00
 -21.160  0.145E+00  0.145E+00
 -21.150  0.144E+00  0.144E+00
 -21.140  0.143E+00  0.143E+00
 -21.130  0.142E+00  0.142E+00
 -21.120  0.141E+00  0.141E+00
 -21.110  0.141E+00  0.141E+00
 -21.100  0.140E+00  0.140E+00
 -21.090  0.139E+00  0.139E+00
 -21.080  0.139E+00  0.139E+00
 -21.070  0.139E+00  0.139E+00
 -21.060  0.139E+00  0.139E+00
 -21.050  0.139E+00  0.139E+00
 -21.040  0.139E+00  0.139E+00
 -21.030  0.138E+00  0.138E+00
 -21.020  0.137E+00  0.137E+00
 -21.010  0.135E+00  0.135E+00
 -21.000  0.134E+00  0.134E+00
 -20.990  0.134E+00  0.134E+00
 -20.980  0.134E+00  0.134E+00
 -20.970  0.135E+00  0.135E+00
 -20.960  0.137E+00  0.137E+00
 -20.950  0.137E+00  0.137E+00
 -20.940  0.137E+00  0.137E+00
 -20.930  0.135E+00  0.135E+00
 -20.920  0.133E+00  0.133E+00
 -20.910  0.130E+00  0.130E+00
 -20.900  0.128E+00  0.128E+00
 -20.890  0.127E+00  0.127E+00
 -20.880  0.128E+00  0.128E+00
 -20.870  0.130E+00  0.130E+00
 -20.860  0.133E+00  0.133E+00
 -20.850  0.136E+00  0.136E+00
 -20.840  0.137E+00  0.137E+00
 -20.830  0.136E+00  0.136E+00
 -20.820  0.134E+00  0.134E+00
 -20.810  0.129E+00  0.129E+00
 -20.800  0.125E+00  0.125E+00
 -20.790  0.121E+00  0.121E+00
 -20.780  0.119E+00  0.119E+00
 -20.770  0.119E+00  0.119E+00
 -20.760  0.122E+00  0.122E+00
 -20.750  0.126E+00  0.126E+00
 -20.740  0.132E+00  0.132E+00
 -20.730  0.136E+00  0.136E+00
 -20.720  0.138E+00  0.138E+00
 -20.710  0.138E+00  0.138E+00
 -20.700  0.135E+00  0.135E+00
 -20.690  0.129E+00  0.129E+00
 -20.680  0.122E+00  0.122E+00
 -20.670  0.116E+00  0.116E+00
 -20.660  0.111E+00  0.111E+00
 -20.650  0.109E+00  0.109E+00
 -20.640  0.111E+00  0.111E+00
 -20.630  0.115E+00  0.115E+00
 -20.620  0.122E+00  0.122E+00
 -20.610  0.129E+00  0.129E+00
 -20.600  0.135E+00  0.135E+00
 -20.590  0.139E+00  0.139E+00
 -20.580  0.140E+00  0.140E+00
 -20.570  0.137E+00  0.137E+00
 -20.560  0.132E+00  0.132E+00
 -20.550  0.124E+00  0.124E+00
 -20.540  0.116E+00  0.116E+00
 -20.530  0.109E+00  0.109E+00
 -20.520  0.103E+00  0.103E+00
 -20.510  0.101E+00  0.101E+00
 -20.500  0.102E+00  0.102E+00
 -20.490  0.106E+00  0.106E+00
 -20.480  0.113E+00  0.113E+00
 -20.470  0.122E+00  0.122E+00
 -20.460  0.131E+00  0.131E+00
 -20.450  0.137E+00  0.137E+00
 -20.440  0.141E+00  0.141E+00
 -20.430  0.141E+00  0.141E+00
 -20.420  0.137E+00  0.137E+00
 -20.410  0.130E+00  0.130E+00
 -20.400  0.121E+00  0.121E+00
 -20.390  0.112E+00  0.112E+00
 -20.380  0.103E+00  0.103E+00
 -20.370  0.974E-01  0.974E-01
 -20.360  0.941E-01  0.941E-01
 -20.350  0.941E-01  0.941E-01
 -20.340  0.971E-01  0.971E-01
 -20.330  0.103E+00  0.103E+00
 -20.320  0.111E+00  0.111E+00
 -20.310  0.120E+00  0.120E+00
 -20.300  0.129E+00  0.129E+00
 -20.290  0.136E+00  0.136E+00
 -20.280  0.141E+00  0.141E+00
 -20.270  0.142E+00  0.142E+00
 -20.260  0.139E+00  0.139E+00
 -20.250  0.133E+00  0.133E+00
 -20.240  0.124E+00  0.124E+00
 -20.230  0.113E+00  0.113E+00
 -20.220  0.102E+00  0.102E+00
 -20.210  0.936E-01  0.936E-01
 -20.200  0.878E-01  0.878E-01
 -20.190  0.855E-01  0.855E-01
 -20.180  0.870E-01  0.870E-01
 -20.170  0.918E-01  0.918E-01
 -20.160  0.991E-01  0.991E-01
 -20.150  0.108E+00  0.108E+00
 -20.140  0.117E+00  0.117E+00
 -20.130  0.126E+00  0.126E+00
 -20.120  0.133E+00  0.133E+00
 -20.110  0.137E+00  0.137E+00
 -20.100  0.139E+00  0.139E+00
 -20.090  0.138E+00  0.138E+00
 -20.080  0.134E+00  0.134E+00
 -20.070  0.128E+00  0.128E+00
 -20.060  0.120E+00  0.120E+00
 -20.050  0.110E+00  0.110E+00
 -20.040  0.100E+00  0.100E+00
 -20.030  0.909E-01  0.909E-01
 -20.020  0.838E-01  0.838E-01
 -20.010  0.795E-01  0.795E-01
 -20.000  0.787E-01  0.787E-01
 -19.990  0.817E-01  0.817E-01
 -19.980  0.882E-01  0.882E-01
 -19.970  0.976E-01  0.976E-01
 -19.960  0.109E+00  0.109E+00
 -19.950  0.120E+00  0.120E+00
 -19.940  0.130E+00  0.130E+00
 -19.930  0.137E+00  0.137E+00
 -19.920  0.140E+00  0.140E+00
 -19.910  0.140E+00  0.140E+00
 -19.900  0.136E+00  0.136E+00
 -19.890  0.130E+00  0.130E+00
 -19.880  0.122E+00  0.122E+00
 -19.870  0.113E+00  0.113E+00
 -19.860  0.105E+00  0.105E+00
 -19.850  0.973E-01  0.973E-01
 -19.840  0.909E-01  0.909E-01
 -19.830  0.856E-01  0.856E-01
 -19.820  0.816E-01  0.816E-01
 -19.810  0.790E-01  0.790E-01
 -19.800  0.784E-01  0.784E-01
 -19.790  0.801E-01  0.801E-01
 -19.780  0.846E-01  0.846E-01
 -19.770  0.919E-01  0.919E-01
 -19.760  0.102E+00  0.102E+00
 -19.750  0.113E+00  0.113E+00
 -19.740  0.124E+00  0.124E+00
 -19.730  0.134E+00  0.134E+00
 -19.720  0.141E+00  0.141E+00
 -19.710  0.144E+00  0.144E+00
 -19.700  0.142E+00  0.142E+00
 -19.690  0.136E+00  0.136E+00
 -19.680  0.126E+00  0.126E+00
 -19.670  0.114E+00  0.114E+00
 -19.660  0.103E+00  0.103E+00
 -19.650  0.921E-01  0.921E-01
 -19.640  0.842E-01  0.842E-01
 -19.630  0.791E-01  0.791E-01
 -19.620  0.767E-01  0.767E-01
 -19.610  0.765E-01  0.765E-01
 -19.600  0.778E-01  0.778E-01
 -19.590  0.801E-01  0.801E-01
 -19.580  0.833E-01  0.833E-01
 -19.570  0.873E-01  0.873E-01
 -19.560  0.923E-01  0.923E-01
 -19.550  0.986E-01  0.986E-01
 -19.540  0.106E+00  0.106E+00
 -19.530  0.114E+00  0.114E+00
 -19.520  0.122E+00  0.122E+00
 -19.510  0.130E+00  0.130E+00
 -19.500  0.135E+00  0.135E+00
 -19.490  0.138E+00  0.138E+00
 -19.480  0.137E+00  0.137E+00
 -19.470  0.133E+00  0.133E+00
 -19.460  0.126E+00  0.126E+00
 -19.450  0.116E+00  0.116E+00
 -19.440  0.105E+00  0.105E+00
 -19.430  0.936E-01  0.936E-01
 -19.420  0.828E-01  0.828E-01
 -19.410  0.741E-01  0.741E-01
 -19.400  0.682E-01  0.682E-01
 -19.390  0.655E-01  0.655E-01
 -19.380  0.661E-01  0.661E-01
 -19.370  0.697E-01  0.697E-01
 -19.360  0.754E-01  0.754E-01
 -19.350  0.827E-01  0.827E-01
 -19.340  0.908E-01  0.908E-01
 -19.330  0.992E-01  0.992E-01
 -19.320  0.107E+00  0.107E+00
 -19.310  0.115E+00  0.115E+00
 -19.300  0.122E+00  0.122E+00
 -19.290  0.126E+00  0.126E+00
 -19.280  0.129E+00  0.129E+00
 -19.270  0.130E+00  0.130E+00
 -19.260  0.129E+00  0.129E+00
 -19.250  0.126E+00  0.126E+00
 -19.240  0.121E+00  0.121E+00
 -19.230  0.115E+00  0.115E+00
 -19.220  0.110E+00  0.110E+00
 -19.210  0.104E+00  0.104E+00
 -19.200  0.978E-01  0.978E-01
 -19.190  0.915E-01  0.915E-01
 -19.180  0.849E-01  0.849E-01
 -19.170  0.781E-01  0.781E-01
 -19.160  0.716E-01  0.716E-01
 -19.150  0.662E-01  0.662E-01
 -19.140  0.628E-01  0.628E-01
 -19.130  0.622E-01  0.622E-01
 -19.120  0.650E-01  0.650E-01
 -19.110  0.713E-01  0.713E-01
 -19.100  0.806E-01  0.806E-01
 -19.090  0.920E-01  0.920E-01
 -19.080  0.104E+00  0.104E+00
 -19.070  0.116E+00  0.116E+00
 -19.060  0.126E+00  0.126E+00
 -19.050  0.134E+00  0.134E+00
 -19.040  0.138E+00  0.138E+00
 -19.030  0.138E+00  0.138E+00
 -19.020  0.134E+00  0.134E+00
 -19.010  0.128E+00  0.128E+00
 -19.000  0.119E+00  0.119E+00
 -18.990  0.109E+00  0.109E+00
 -18.980  0.995E-01  0.995E-01
 -18.970  0.913E-01  0.913E-01
 -18.960  0.852E-01  0.852E-01
 -18.950  0.815E-01  0.815E-01
 -18.940  0.798E-01  0.798E-01
 -18.930  0.794E-01  0.794E-01
 -18.920  0.794E-01  0.794E-01
 -18.910  0.789E-01  0.789E-01
 -18.900  0.774E-01  0.774E-01
 -18.890  0.749E-01  0.749E-01
 -18.880  0.720E-01  0.720E-01
 -18.870  0.698E-01  0.698E-01
 -18.860  0.695E-01  0.695E-01
 -18.850  0.722E-01  0.722E-01
 -18.840  0.783E-01  0.783E-01
 -18.830  0.877E-01  0.877E-01
 -18.820  0.995E-01  0.995E-01
 -18.810  0.112E+00  0.112E+00
 -18.800  0.124E+00  0.124E+00
 -18.790  0.134E+00  0.134E+00
 -18.780  0.139E+00  0.139E+00
 -18.770  0.141E+00  0.141E+00
 -18.760  0.138E+00  0.138E+00
 -18.750  0.132E+00  0.132E+00
 -18.740  0.122E+00  0.122E+00
 -18.730  0.111E+00  0.111E+00
 -18.720  0.998E-01  0.998E-01
 -18.710  0.887E-01  0.887E-01
 -18.700  0.791E-01  0.791E-01
 -18.690  0.715E-01  0.715E-01
 -18.680  0.663E-01  0.663E-01
 -18.670  0.637E-01  0.637E-01
 -18.660  0.636E-01  0.636E-01
 -18.650  0.657E-01  0.657E-01
 -18.640  0.693E-01  0.693E-01
 -18.630  0.736E-01  0.736E-01
 -18.620  0.777E-01  0.777E-01
 -18.610  0.812E-01  0.812E-01
 -18.600  0.837E-01  0.837E-01
 -18.590  0.855E-01  0.855E-01
 -18.580  0.873E-01  0.873E-01
 -18.570  0.899E-01  0.899E-01
 -18.560  0.940E-01  0.940E-01
 -18.550  0.997E-01  0.997E-01
 -18.540  0.107E+00  0.107E+00
 -18.530  0.115E+00  0.115E+00
 -18.520  0.122E+00  0.122E+00
 -18.510  0.127E+00  0.127E+00
 -18.500  0.129E+00  0.129E+00
 -18.490  0.129E+00  0.129E+00
 -18.480  0.126E+00  0.126E+00
 -18.470  0.120E+00  0.120E+00
 -18.460  0.113E+00  0.113E+00
 -18.450  0.105E+00  0.105E+00
 -18.440  0.964E-01  0.964E-01
 -18.430  0.885E-01  0.885E-01
 -18.420  0.810E-01  0.810E-01
 -18.410  0.740E-01  0.740E-01
 -18.400  0.677E-01  0.677E-01
 -18.390  0.623E-01  0.623E-01
 -18.380  0.581E-01  0.581E-01
 -18.370  0.556E-01  0.556E-01
 -18.360  0.553E-01  0.553E-01
 -18.350  0.577E-01  0.577E-01
 -18.340  0.627E-01  0.627E-01
 -18.330  0.701E-01  0.701E-01
 -18.320  0.792E-01  0.792E-01
 -18.310  0.890E-01  0.890E-01
 -18.300  0.985E-01  0.985E-01
 -18.290  0.107E+00  0.107E+00
 -18.280  0.113E+00  0.113E+00
 -18.270  0.118E+00  0.118E+00
 -18.260  0.121E+00  0.121E+00
 -18.250  0.121E+00  0.121E+00
 -18.240  0.121E+00  0.121E+00
 -18.230  0.119E+00  0.119E+00
 -18.220  0.116E+00  0.116E+00
 -18.210  0.113E+00  0.113E+00
 -18.200  0.109E+00  0.109E+00
 -18.190  0.104E+00  0.104E+00
 -18.180  0.996E-01  0.996E-01
 -18.170  0.953E-01  0.953E-01
 -18.160  0.914E-01  0.914E-01
 -18.150  0.881E-01  0.881E-01
 -18.140  0.851E-01  0.851E-01
 -18.130  0.824E-01  0.824E-01
 -18.120  0.797E-01  0.797E-01
 -18.110  0.767E-01  0.767E-01
 -18.100  0.732E-01  0.732E-01
 -18.090  0.691E-01  0.691E-01
 -18.080  0.648E-01  0.648E-01
 -18.070  0.606E-01  0.606E-01
 -18.060  0.572E-01  0.572E-01
 -18.050  0.557E-01  0.557E-01
 -18.040  0.568E-01  0.568E-01
 -18.030  0.614E-01  0.614E-01
 -18.020  0.698E-01  0.698E-01
 -18.010  0.815E-01  0.815E-01
 -18.000  0.955E-01  0.955E-01
 -17.990  0.110E+00  0.110E+00
 -17.980  0.124E+00  0.124E+00
 -17.970  0.134E+00  0.134E+00
 -17.960  0.140E+00  0.140E+00
 -17.950  0.140E+00  0.140E+00
 -17.940  0.136E+00  0.136E+00
 -17.930  0.128E+00  0.128E+00
 -17.920  0.118E+00  0.118E+00
 -17.910  0.107E+00  0.107E+00
 -17.900  0.966E-01  0.966E-01
 -17.890  0.881E-01  0.881E-01
 -17.880  0.816E-01  0.816E-01
 -17.870  0.772E-01  0.772E-01
 -17.860  0.746E-01  0.746E-01
 -17.850  0.733E-01  0.733E-01
 -17.840  0.730E-01  0.730E-01
 -17.830  0.733E-01  0.733E-01
 -17.820  0.739E-01  0.739E-01
 -17.810  0.745E-01  0.745E-01
 -17.800  0.750E-01  0.750E-01
 -17.790  0.751E-01  0.751E-01
 -17.780  0.748E-01  0.748E-01
 -17.770  0.740E-01  0.740E-01
 -17.760  0.726E-01  0.726E-01
 -17.750  0.710E-01  0.710E-01
 -17.740  0.696E-01  0.696E-01
 -17.730  0.689E-01  0.689E-01
 -17.720  0.699E-01  0.699E-01
 -17.710  0.732E-01  0.732E-01
 -17.700  0.795E-01  0.795E-01
 -17.690  0.887E-01  0.887E-01
 -17.680  0.100E+00  0.100E+00
 -17.670  0.113E+00  0.113E+00
 -17.660  0.125E+00  0.125E+00
 -17.650  0.134E+00  0.134E+00
 -17.640  0.140E+00  0.140E+00
 -17.630  0.141E+00  0.141E+00
 -17.620  0.136E+00  0.136E+00
 -17.610  0.127E+00  0.127E+00
 -17.600  0.116E+00  0.116E+00
 -17.590  0.103E+00  0.103E+00
 -17.580  0.908E-01  0.908E-01
 -17.570  0.802E-01  0.802E-01
 -17.560  0.722E-01  0.722E-01
 -17.550  0.667E-01  0.667E-01
 -17.540  0.636E-01  0.636E-01
 -17.530  0.623E-01  0.623E-01
 -17.520  0.621E-01  0.621E-01
 -17.510  0.627E-01  0.627E-01
 -17.500  0.637E-01  0.637E-01
 -17.490  0.650E-01  0.650E-01
 -17.480  0.666E-01  0.666E-01
 -17.470  0.685E-01  0.685E-01
 -17.460  0.709E-01  0.709E-01
 -17.450  0.738E-01  0.738E-01
 -17.440  0.773E-01  0.773E-01
 -17.430  0.810E-01  0.810E-01
 -17.420  0.850E-01  0.850E-01
 -17.410  0.890E-01  0.890E-01
 -17.400  0.928E-01  0.928E-01
 -17.390  0.963E-01  0.963E-01
 -17.380  0.994E-01  0.994E-01
 -17.370  0.102E+00  0.102E+00
 -17.360  0.105E+00  0.105E+00
 -17.350  0.108E+00  0.108E+00
 -17.340  0.111E+00  0.111E+00
 -17.330  0.114E+00  0.114E+00
 -17.320  0.116E+00  0.116E+00
 -17.310  0.118E+00  0.118E+00
 -17.300  0.119E+00  0.119E+00
 -17.290  0.117E+00  0.117E+00
 -17.280  0.114E+00  0.114E+00
 -17.270  0.109E+00  0.109E+00
 -17.260  0.102E+00  0.102E+00
 -17.250  0.936E-01  0.936E-01
 -17.240  0.852E-01  0.852E-01
 -17.230  0.773E-01  0.773E-01
 -17.220  0.704E-01  0.704E-01
 -17.210  0.649E-01  0.649E-01
 -17.200  0.612E-01  0.612E-01
 -17.190  0.589E-01  0.589E-01
 -17.180  0.579E-01  0.579E-01
 -17.170  0.579E-01  0.579E-01
 -17.160  0.585E-01  0.585E-01
 -17.150  0.597E-01  0.597E-01
 -17.140  0.616E-01  0.616E-01
 -17.130  0.643E-01  0.643E-01
 -17.120  0.682E-01  0.682E-01
 -17.110  0.737E-01  0.737E-01
 -17.100  0.809E-01  0.809E-01
 -17.090  0.896E-01  0.896E-01
 -17.080  0.993E-01  0.993E-01
 -17.070  0.109E+00  0.109E+00
 -17.060  0.118E+00  0.118E+00
 -17.050  0.125E+00  0.125E+00
 -17.040  0.128E+00  0.128E+00
 -17.030  0.128E+00  0.128E+00
 -17.020  0.124E+00  0.124E+00
 -17.010  0.118E+00  0.118E+00
 -17.000  0.111E+00  0.111E+00
 -16.990  0.103E+00  0.103E+00
 -16.980  0.965E-01  0.965E-01
 -16.970  0.923E-01  0.923E-01
 -16.960  0.905E-01  0.905E-01
 -16.950  0.907E-01  0.907E-01
 -16.940  0.921E-01  0.921E-01
 -16.930  0.936E-01  0.936E-01
 -16.920  0.942E-01  0.942E-01
 -16.910  0.932E-01  0.932E-01
 -16.900  0.904E-01  0.904E-01
 -16.890  0.860E-01  0.860E-01
 -16.880  0.804E-01  0.804E-01
 -16.870  0.744E-01  0.744E-01
 -16.860  0.686E-01  0.686E-01
 -16.850  0.639E-01  0.639E-01
 -16.840  0.605E-01  0.605E-01
 -16.830  0.586E-01  0.586E-01
 -16.820  0.582E-01  0.582E-01
 -16.810  0.592E-01  0.592E-01
 -16.800  0.615E-01  0.615E-01
 -16.790  0.650E-01  0.650E-01
 -16.780  0.698E-01  0.698E-01
 -16.770  0.762E-01  0.762E-01
 -16.760  0.844E-01  0.844E-01
 -16.750  0.944E-01  0.944E-01
 -16.740  0.106E+00  0.106E+00
 -16.730  0.118E+00  0.118E+00
 -16.720  0.129E+00  0.129E+00
 -16.710  0.138E+00  0.138E+00
 -16.700  0.143E+00  0.143E+00
 -16.690  0.144E+00  0.144E+00
 -16.680  0.140E+00  0.140E+00
 -16.670  0.131E+00  0.131E+00
 -16.660  0.120E+00  0.120E+00
 -16.650  0.107E+00  0.107E+00
 -16.640  0.946E-01  0.946E-01
 -16.630  0.848E-01  0.848E-01
 -16.620  0.786E-01  0.786E-01
 -16.610  0.762E-01  0.762E-01
 -16.600  0.774E-01  0.774E-01
 -16.590  0.810E-01  0.810E-01
 -16.580  0.856E-01  0.856E-01
 -16.570  0.898E-01  0.898E-01
 -16.560  0.924E-01  0.924E-01
 -16.550  0.929E-01  0.929E-01
 -16.540  0.909E-01  0.909E-01
 -16.530  0.870E-01  0.870E-01
 -16.520  0.817E-01  0.817E-01
 -16.510  0.760E-01  0.760E-01
 -16.500  0.708E-01  0.708E-01
 -16.490  0.669E-01  0.669E-01
 -16.480  0.649E-01  0.649E-01
 -16.470  0.650E-01  0.650E-01
 -16.460  0.675E-01  0.675E-01
 -16.450  0.721E-01  0.721E-01
 -16.440  0.787E-01  0.787E-01
 -16.430  0.871E-01  0.871E-01
 -16.420  0.968E-01  0.968E-01
 -16.410  0.108E+00  0.108E+00
 -16.400  0.119E+00  0.119E+00
 -16.390  0.129E+00  0.129E+00
 -16.380  0.139E+00  0.139E+00
 -16.370  0.146E+00  0.146E+00
 -16.360  0.150E+00  0.150E+00
 -16.350  0.151E+00  0.151E+00
 -16.340  0.147E+00  0.147E+00
 -16.330  0.140E+00  0.140E+00
 -16.320  0.130E+00  0.130E+00
 -16.310  0.119E+00  0.119E+00
 -16.300  0.110E+00  0.110E+00
 -16.290  0.102E+00  0.102E+00
 -16.280  0.970E-01  0.970E-01
 -16.270  0.957E-01  0.957E-01
 -16.260  0.973E-01  0.973E-01
 -16.250  0.101E+00  0.101E+00
 -16.240  0.105E+00  0.105E+00
 -16.230  0.108E+00  0.108E+00
 -16.220  0.109E+00  0.109E+00
 -16.210  0.108E+00  0.108E+00
 -16.200  0.106E+00  0.106E+00
 -16.190  0.104E+00  0.104E+00
 -16.180  0.102E+00  0.102E+00
 -16.170  0.102E+00  0.102E+00
 -16.160  0.104E+00  0.104E+00
 -16.150  0.108E+00  0.108E+00
 -16.140  0.114E+00  0.114E+00
 -16.130  0.120E+00  0.120E+00
 -16.120  0.127E+00  0.127E+00
 -16.110  0.133E+00  0.133E+00
 -16.100  0.139E+00  0.139E+00
 -16.090  0.144E+00  0.144E+00
 -16.080  0.148E+00  0.148E+00
 -16.070  0.152E+00  0.152E+00
 -16.060  0.155E+00  0.155E+00
 -16.050  0.158E+00  0.158E+00
 -16.040  0.159E+00  0.159E+00
 -16.030  0.159E+00  0.159E+00
 -16.020  0.158E+00  0.158E+00
 -16.010  0.153E+00  0.153E+00
 -16.000  0.147E+00  0.147E+00
 -15.990  0.137E+00  0.137E+00
 -15.980  0.126E+00  0.126E+00
 -15.970  0.113E+00  0.113E+00
 -15.960  0.100E+00  0.100E+00
 -15.950  0.880E-01  0.880E-01
 -15.940  0.778E-01  0.778E-01
 -15.930  0.705E-01  0.705E-01
 -15.920  0.665E-01  0.665E-01
 -15.910  0.658E-01  0.658E-01
 -15.900  0.676E-01  0.676E-01
 -15.890  0.711E-01  0.711E-01
 -15.880  0.748E-01  0.748E-01
 -15.870  0.776E-01  0.776E-01
 -15.860  0.782E-01  0.782E-01
 -15.850  0.759E-01  0.759E-01
 -15.840  0.704E-01  0.704E-01
 -15.830  0.620E-01  0.620E-01
 -15.820  0.516E-01  0.516E-01
 -15.810  0.406E-01  0.406E-01
 -15.800  0.303E-01  0.303E-01
 -15.790  0.223E-01  0.223E-01
 -15.780  0.179E-01  0.179E-01
 -15.770  0.180E-01  0.180E-01
 -15.760  0.229E-01  0.229E-01
 -15.750  0.326E-01  0.326E-01
 -15.740  0.465E-01  0.465E-01
 -15.730  0.634E-01  0.634E-01
 -15.720  0.819E-01  0.819E-01
 -15.710  0.100E+00  0.100E+00
 -15.700  0.117E+00  0.117E+00
 -15.690  0.131E+00  0.131E+00
 -15.680  0.140E+00  0.140E+00
 -15.670  0.143E+00  0.143E+00
 -15.660  0.141E+00  0.141E+00
 -15.650  0.132E+00  0.132E+00
 -15.640  0.119E+00  0.119E+00
 -15.630  0.101E+00  0.101E+00
 -15.620  0.809E-01  0.809E-01
 -15.610  0.599E-01  0.599E-01
 -15.600  0.399E-01  0.399E-01
 -15.590  0.224E-01  0.224E-01
 -15.580  0.840E-02  0.840E-02
 -15.570 -0.139E-02 -0.139E-02
 -15.560 -0.696E-02 -0.696E-02
 -15.550 -0.873E-02 -0.873E-02
 -15.540 -0.746E-02 -0.746E-02
 -15.530 -0.405E-02 -0.405E-02
 -15.520  0.588E-03  0.588E-03
 -15.510  0.570E-02  0.570E-02
 -15.500  0.108E-01  0.108E-01
 -15.490  0.156E-01  0.156E-01
 -15.480  0.202E-01  0.202E-01
 -15.470  0.251E-01  0.251E-01
 -15.460  0.306E-01  0.306E-01
 -15.450  0.375E-01  0.375E-01
 -15.440  0.461E-01  0.461E-01
 -15.430  0.565E-01  0.565E-01
 -15.420  0.685E-01  0.685E-01
 -15.410  0.812E-01  0.812E-01
 -15.400  0.932E-01  0.932E-01
 -15.390  0.103E+00  0.103E+00
 -15.380  0.109E+00  0.109E+00
 -15.370  0.109E+00  0.109E+00
 -15.360  0.104E+00  0.104E+00
 -15.350  0.937E-01  0.937E-01
 -15.340  0.785E-01  0.785E-01
 -15.330  0.607E-01  0.607E-01
 -15.320  0.423E-01  0.423E-01
 -15.310  0.255E-01  0.255E-01
 -15.300  0.117E-01  0.117E-01
 -15.290  0.199E-02  0.199E-02
 -15.280 -0.347E-02 -0.347E-02
 -15.270 -0.513E-02 -0.513E-02
 -15.260 -0.387E-02 -0.387E-02
 -15.250 -0.780E-03 -0.780E-03
 -15.240  0.307E-02  0.307E-02
 -15.230  0.682E-02  0.682E-02
 -15.220  0.993E-02  0.993E-02
 -15.210  0.122E-01  0.122E-01
 -15.200  0.137E-01  0.137E-01
 -15.190  0.147E-01  0.147E-01
 -15.180  0.159E-01  0.159E-01
 -15.170  0.176E-01  0.176E-01
 -15.160  0.203E-01  0.203E-01
 -15.150  0.242E-01  0.242E-01
 -15.140  0.293E-01  0.293E-01
 -15.130  0.353E-01  0.353E-01
 -15.120  0.420E-01  0.420E-01
 -15.110  0.487E-01  0.487E-01
 -15.100  0.551E-01  0.551E-01
 -15.090  0.605E-01  0.605E-01
 -15.080  0.647E-01  0.647E-01
 -15.070  0.672E-01  0.672E-01
 -15.060  0.679E-01  0.679E-01
 -15.050  0.666E-01  0.666E-01
 -15.040  0.634E-01  0.634E-01
 -15.030  0.587E-01  0.587E-01
 -15.020  0.530E-01  0.530E-01
 -15.010  0.468E-01  0.468E-01
 -15.000  0.410E-01  0.410E-01
 -14.990  0.360E-01  0.360E-01
 -14.980  0.324E-01  0.324E-01
 -14.970  0.302E-01  0.302E-01
 -14.960  0.295E-01  0.295E-01
 -14.950  0.299E-01  0.299E-01
 -14.940  0.312E-01  0.312E-01
 -14.930  0.330E-01  0.330E-01
 -14.920  0.349E-01  0.349E-01
 -14.910  0.370E-01  0.370E-01
 -14.900  0.390E-01  0.390E-01
 -14.890  0.410E-01  0.410E-01
 -14.880  0.430E-01  0.430E-01
 -14.870  0.450E-01  0.450E-01
 -14.860  0.470E-01  0.470E-01
 -14.850  0.489E-01  0.489E-01
 -14.840  0.507E-01  0.507E-01
 -14.830  0.523E-01  0.523E-01
 -14.820  0.537E-01  0.537E-01
 -14.810  0.550E-01  0.550E-01
 -14.800  0.560E-01  0.560E-01
 -14.790  0.568E-01  0.568E-01
 -14.780  0.572E-01  0.572E-01
 -14.770  0.573E-01  0.573E-01
 -14.760  0.571E-01  0.571E-01
 -14.750  0.565E-01  0.565E-01
 -14.740  0.559E-01  0.559E-01
 -14.730  0.552E-01  0.552E-01
 -14.720  0.547E-01  0.547E-01
 -14.710  0.541E-01  0.541E-01
 -14.700  0.533E-01  0.533E-01
 -14.690  0.521E-01  0.521E-01
 -14.680  0.501E-01  0.501E-01
 -14.670  0.471E-01  0.471E-01
 -14.660  0.432E-01  0.432E-01
 -14.650  0.386E-01  0.386E-01
 -14.640  0.338E-01  0.338E-01
 -14.630  0.297E-01  0.297E-01
 -14.620  0.268E-01  0.268E-01
 -14.610  0.259E-01  0.259E-01
 -14.600  0.274E-01  0.274E-01
 -14.590  0.312E-01  0.312E-01
 -14.580  0.371E-01  0.371E-01
 -14.570  0.442E-01  0.442E-01
 -14.560  0.517E-01  0.517E-01
 -14.550  0.586E-01  0.586E-01
 -14.540  0.641E-01  0.641E-01
 -14.530  0.674E-01  0.674E-01
 -14.520  0.683E-01  0.683E-01
 -14.510  0.670E-01  0.670E-01
 -14.500  0.636E-01  0.636E-01
 -14.490  0.589E-01  0.589E-01
 -14.480  0.535E-01  0.535E-01
 -14.470  0.481E-01  0.481E-01
 -14.460  0.432E-01  0.432E-01
 -14.450  0.392E-01  0.392E-01
 -14.440  0.361E-01  0.361E-01
 -14.430  0.341E-01  0.341E-01
 -14.420  0.330E-01  0.330E-01
 -14.410  0.330E-01  0.330E-01
 -14.400  0.341E-01  0.341E-01
 -14.390  0.365E-01  0.365E-01
 -14.380  0.404E-01  0.404E-01
 -14.370  0.458E-01  0.458E-01
 -14.360  0.526E-01  0.526E-01
 -14.350  0.603E-01  0.603E-01
 -14.340  0.681E-01  0.681E-01
 -14.330  0.753E-01  0.753E-01
 -14.320  0.808E-01  0.808E-01
 -14.310  0.839E-01  0.839E-01
 -14.300  0.843E-01  0.843E-01
 -14.290  0.820E-01  0.820E-01
 -14.280  0.775E-01  0.775E-01
 -14.270  0.718E-01  0.718E-01
 -14.260  0.658E-01  0.658E-01
 -14.250  0.609E-01  0.609E-01
 -14.240  0.582E-01  0.582E-01
 -14.230  0.585E-01  0.585E-01
 -14.220  0.619E-01  0.619E-01
 -14.210  0.683E-01  0.683E-01
 -14.200  0.768E-01  0.768E-01
 -14.190  0.858E-01  0.858E-01
 -14.180  0.940E-01  0.940E-01
 -14.170  0.997E-01  0.997E-01
 -14.160  0.102E+00  0.102E+00
 -14.150  0.101E+00  0.101E+00
 -14.140  0.958E-01  0.958E-01
 -14.130  0.887E-01  0.887E-01
 -14.120  0.809E-01  0.809E-01
 -14.110  0.737E-01  0.737E-01
 -14.100  0.684E-01  0.684E-01
 -14.090  0.656E-01  0.656E-01
 -14.080  0.653E-01  0.653E-01
 -14.070  0.667E-01  0.667E-01
 -14.060  0.690E-01  0.690E-01
 -14.050  0.710E-01  0.710E-01
 -14.040  0.722E-01  0.722E-01
 -14.030  0.719E-01  0.719E-01
 -14.020  0.702E-01  0.702E-01
 -14.010  0.674E-01  0.674E-01
 -14.000  0.641E-01  0.641E-01
 -13.990  0.611E-01  0.611E-01
 -13.980  0.588E-01  0.588E-01
 -13.970  0.577E-01  0.577E-01
 -13.960  0.579E-01  0.579E-01
 -13.950  0.592E-01  0.592E-01
 -13.940  0.613E-01  0.613E-01
 -13.930  0.636E-01  0.636E-01
 -13.920  0.657E-01  0.657E-01
 -13.910  0.670E-01  0.670E-01
 -13.900  0.675E-01  0.675E-01
 -13.890  0.670E-01  0.670E-01
 -13.880  0.657E-01  0.657E-01
 -13.870  0.640E-01  0.640E-01
 -13.860  0.620E-01  0.620E-01
 -13.850  0.601E-01  0.601E-01
 -13.840  0.585E-01  0.585E-01
 -13.830  0.573E-01  0.573E-01
 -13.820  0.567E-01  0.567E-01
 -13.810  0.568E-01  0.568E-01
 -13.800  0.575E-01  0.575E-01
 -13.790  0.590E-01  0.590E-01
 -13.780  0.610E-01  0.610E-01
 -13.770  0.632E-01  0.632E-01
 -13.760  0.650E-01  0.650E-01
 -13.750  0.661E-01  0.661E-01
 -13.740  0.657E-01  0.657E-01
 -13.730  0.638E-01  0.638E-01
 -13.720  0.602E-01  0.602E-01
 -13.710  0.555E-01  0.555E-01
 -13.700  0.504E-01  0.504E-01
 -13.690  0.458E-01  0.458E-01
 -13.680  0.428E-01  0.428E-01
 -13.670  0.421E-01  0.421E-01
 -13.660  0.442E-01  0.442E-01
 -13.650  0.488E-01  0.488E-01
 -13.640  0.553E-01  0.553E-01
 -13.630  0.625E-01  0.625E-01
 -13.620  0.690E-01  0.690E-01
 -13.610  0.735E-01  0.735E-01
 -13.600  0.748E-01  0.748E-01
 -13.590  0.728E-01  0.728E-01
 -13.580  0.675E-01  0.675E-01
 -13.570  0.600E-01  0.600E-01
 -13.560  0.516E-01  0.516E-01
 -13.550  0.439E-01  0.439E-01
 -13.540  0.381E-01  0.381E-01
 -13.530  0.352E-01  0.352E-01
 -13.520  0.357E-01  0.357E-01
 -13.510  0.393E-01  0.393E-01
 -13.500  0.453E-01  0.453E-01
 -13.490  0.525E-01  0.525E-01
 -13.480  0.596E-01  0.596E-01
 -13.470  0.652E-01  0.652E-01
 -13.460  0.683E-01  0.683E-01
 -13.450  0.682E-01  0.682E-01
 -13.440  0.652E-01  0.652E-01
 -13.430  0.599E-01  0.599E-01
 -13.420  0.534E-01  0.534E-01
 -13.410  0.471E-01  0.471E-01
 -13.400  0.422E-01  0.422E-01
 -13.390  0.395E-01  0.395E-01
 -13.380  0.394E-01  0.394E-01
 -13.370  0.417E-01  0.417E-01
 -13.360  0.457E-01  0.457E-01
 -13.350  0.504E-01  0.504E-01
 -13.340  0.549E-01  0.549E-01
 -13.330  0.585E-01  0.585E-01
 -13.320  0.606E-01  0.606E-01
 -13.310  0.609E-01  0.609E-01
 -13.300  0.596E-01  0.596E-01
 -13.290  0.569E-01  0.569E-01
 -13.280  0.533E-01  0.533E-01
 -13.270  0.492E-01  0.492E-01
 -13.260  0.451E-01  0.451E-01
 -13.250  0.415E-01  0.415E-01
 -13.240  0.388E-01  0.388E-01
 -13.230  0.374E-01  0.374E-01
 -13.220  0.374E-01  0.374E-01
 -13.210  0.390E-01  0.390E-01
 -13.200  0.418E-01  0.418E-01
 -13.190  0.456E-01  0.456E-01
 -13.180  0.498E-01  0.498E-01
 -13.170  0.536E-01  0.536E-01
 -13.160  0.567E-01  0.567E-01
 -13.150  0.586E-01  0.586E-01
 -13.140  0.592E-01  0.592E-01
 -13.130  0.586E-01  0.586E-01
 -13.120  0.570E-01  0.570E-01
 -13.110  0.548E-01  0.548E-01
 -13.100  0.523E-01  0.523E-01
 -13.090  0.496E-01  0.496E-01
 -13.080  0.469E-01  0.469E-01
 -13.070  0.442E-01  0.442E-01
 -13.060  0.416E-01  0.416E-01
 -13.050  0.391E-01  0.391E-01
 -13.040  0.369E-01  0.369E-01
 -13.030  0.352E-01  0.352E-01
 -13.020  0.341E-01  0.341E-01
 -13.010  0.339E-01  0.339E-01
 -13.000  0.347E-01  0.347E-01
 -12.990  0.366E-01  0.366E-01
 -12.980  0.394E-01  0.394E-01
 -12.970  0.429E-01  0.429E-01
 -12.960  0.468E-01  0.468E-01
 -12.950  0.507E-01  0.507E-01
 -12.940  0.541E-01  0.541E-01
 -12.930  0.569E-01  0.569E-01
 -12.920  0.586E-01  0.586E-01
 -12.910  0.591E-01  0.591E-01
 -12.900  0.585E-01  0.585E-01
 -12.890  0.567E-01  0.567E-01
 -12.880  0.539E-01  0.539E-01
 -12.870  0.502E-01  0.502E-01
 -12.860  0.459E-01  0.459E-01
 -12.850  0.414E-01  0.414E-01
 -12.840  0.370E-01  0.370E-01
 -12.830  0.333E-01  0.333E-01
 -12.820  0.307E-01  0.307E-01
 -12.810  0.294E-01  0.294E-01
 -12.800  0.296E-01  0.296E-01
 -12.790  0.311E-01  0.311E-01
 -12.780  0.336E-01  0.336E-01
 -12.770  0.366E-01  0.366E-01
 -12.760  0.397E-01  0.397E-01
 -12.750  0.423E-01  0.423E-01
 -12.740  0.442E-01  0.442E-01
 -12.730  0.453E-01  0.453E-01
 -12.720  0.457E-01  0.457E-01
 -12.710  0.455E-01  0.455E-01
 -12.700  0.450E-01  0.450E-01
 -12.690  0.446E-01  0.446E-01
 -12.680  0.443E-01  0.443E-01
 -12.670  0.443E-01  0.443E-01
 -12.660  0.447E-01  0.447E-01
 -12.650  0.453E-01  0.453E-01
 -12.640  0.460E-01  0.460E-01
 -12.630  0.467E-01  0.467E-01
 -12.620  0.470E-01  0.470E-01
 -12.610  0.470E-01  0.470E-01
 -12.600  0.465E-01  0.465E-01
 -12.590  0.455E-01  0.455E-01
 -12.580  0.442E-01  0.442E-01
 -12.570  0.426E-01  0.426E-01
 -12.560  0.408E-01  0.408E-01
 -12.550  0.389E-01  0.389E-01
 -12.540  0.370E-01  0.370E-01
 -12.530  0.350E-01  0.350E-01
 -12.520  0.328E-01  0.328E-01
 -12.510  0.306E-01  0.306E-01
 -12.500  0.282E-01  0.282E-01
 -12.490  0.259E-01  0.259E-01
 -12.480  0.239E-01  0.239E-01
 -12.470  0.228E-01  0.228E-01
 -12.460  0.229E-01  0.229E-01
 -12.450  0.247E-01  0.247E-01
 -12.440  0.284E-01  0.284E-01
 -12.430  0.338E-01  0.338E-01
 -12.420  0.405E-01  0.405E-01
 -12.410  0.478E-01  0.478E-01
 -12.400  0.546E-01  0.546E-01
 -12.390  0.602E-01  0.602E-01
 -12.380  0.638E-01  0.638E-01
 -12.370  0.649E-01  0.649E-01
 -12.360  0.636E-01  0.636E-01
 -12.350  0.601E-01  0.601E-01
 -12.340  0.549E-01  0.549E-01
 -12.330  0.486E-01  0.486E-01
 -12.320  0.419E-01  0.419E-01
 -12.310  0.353E-01  0.353E-01
 -12.300  0.292E-01  0.292E-01
 -12.290  0.239E-01  0.239E-01
 -12.280  0.197E-01  0.197E-01
 -12.270  0.166E-01  0.166E-01
 -12.260  0.147E-01  0.147E-01
 -12.250  0.141E-01  0.141E-01
 -12.240  0.148E-01  0.148E-01
 -12.230  0.166E-01  0.166E-01
 -12.220  0.196E-01  0.196E-01
 -12.210  0.234E-01  0.234E-01
 -12.200  0.282E-01  0.282E-01
 -12.190  0.336E-01  0.336E-01
 -12.180  0.395E-01  0.395E-01
 -12.170  0.456E-01  0.456E-01
 -12.160  0.516E-01  0.516E-01
 -12.150  0.567E-01  0.567E-01
 -12.140  0.605E-01  0.605E-01
 -12.130  0.623E-01  0.623E-01
 -12.120  0.620E-01  0.620E-01
 -12.110  0.593E-01  0.593E-01
 -12.100  0.548E-01  0.548E-01
 -12.090  0.491E-01  0.491E-01
 -12.080  0.428E-01  0.428E-01
 -12.070  0.367E-01  0.367E-01
 -12.060  0.313E-01  0.313E-01
 -12.050  0.271E-01  0.271E-01
 -12.040  0.241E-01  0.241E-01
 -12.030  0.223E-01  0.223E-01
 -12.020  0.215E-01  0.215E-01
 -12.010  0.215E-01  0.215E-01
 -12.000  0.221E-01  0.221E-01
 -11.990  0.233E-01  0.233E-01
 -11.980  0.251E-01  0.251E-01
 -11.970  0.273E-01  0.273E-01
 -11.960  0.301E-01  0.301E-01
 -11.950  0.332E-01  0.332E-01
 -11.940  0.364E-01  0.364E-01
 -11.930  0.396E-01  0.396E-01
 -11.920  0.423E-01  0.423E-01
 -11.910  0.443E-01  0.443E-01
 -11.900  0.453E-01  0.453E-01
 -11.890  0.452E-01  0.452E-01
 -11.880  0.441E-01  0.441E-01
 -11.870  0.422E-01  0.422E-01
 -11.860  0.398E-01  0.398E-01
 -11.850  0.373E-01  0.373E-01
 -11.840  0.351E-01  0.351E-01
 -11.830  0.336E-01  0.336E-01
 -11.820  0.329E-01  0.329E-01
 -11.810  0.330E-01  0.330E-01
 -11.800  0.339E-01  0.339E-01
 -11.790  0.353E-01  0.353E-01
 -11.780  0.369E-01  0.369E-01
 -11.770  0.384E-01  0.384E-01
 -11.760  0.394E-01  0.394E-01
 -11.750  0.398E-01  0.398E-01
 -11.740  0.395E-01  0.395E-01
 -11.730  0.386E-01  0.386E-01
 -11.720  0.373E-01  0.373E-01
 -11.710  0.355E-01  0.355E-01
 -11.700  0.337E-01  0.337E-01
 -11.690  0.318E-01  0.318E-01
 -11.680  0.302E-01  0.302E-01
 -11.670  0.291E-01  0.291E-01
 -11.660  0.284E-01  0.284E-01
 -11.650  0.285E-01  0.285E-01
 -11.640  0.291E-01  0.291E-01
 -11.630  0.302E-01  0.302E-01
 -11.620  0.317E-01  0.317E-01
 -11.610  0.332E-01  0.332E-01
 -11.600  0.347E-01  0.347E-01
 -11.590  0.358E-01  0.358E-01
 -11.580  0.367E-01  0.367E-01
 -11.570  0.373E-01  0.373E-01
 -11.560  0.379E-01  0.379E-01
 -11.550  0.385E-01  0.385E-01
 -11.540  0.393E-01  0.393E-01
 -11.530  0.401E-01  0.401E-01
 -11.520  0.408E-01  0.408E-01
 -11.510  0.411E-01  0.411E-01
 -11.500  0.409E-01  0.409E-01
 -11.490  0.398E-01  0.398E-01
 -11.480  0.378E-01  0.378E-01
 -11.470  0.350E-01  0.350E-01
 -11.460  0.317E-01  0.317E-01
 -11.450  0.283E-01  0.283E-01
 -11.440  0.252E-01  0.252E-01
 -11.430  0.229E-01  0.229E-01
 -11.420  0.218E-01  0.218E-01
 -11.410  0.219E-01  0.219E-01
 -11.400  0.234E-01  0.234E-01
 -11.390  0.261E-01  0.261E-01
 -11.380  0.296E-01  0.296E-01
 -11.370  0.335E-01  0.335E-01
 -11.360  0.374E-01  0.374E-01
 -11.350  0.408E-01  0.408E-01
 -11.340  0.435E-01  0.435E-01
 -11.330  0.454E-01  0.454E-01
 -11.320  0.465E-01  0.465E-01
 -11.310  0.470E-01  0.470E-01
 -11.300  0.469E-01  0.469E-01
 -11.290  0.462E-01  0.462E-01
 -11.280  0.451E-01  0.451E-01
 -11.270  0.432E-01  0.432E-01
 -11.260  0.405E-01  0.405E-01
 -11.250  0.368E-01  0.368E-01
 -11.240  0.322E-01  0.322E-01
 -11.230  0.269E-01  0.269E-01
 -11.220  0.215E-01  0.215E-01
 -11.210  0.165E-01  0.165E-01
 -11.200  0.126E-01  0.126E-01
 -11.190  0.104E-01  0.104E-01
 -11.180  0.101E-01  0.101E-01
 -11.170  0.120E-01  0.120E-01
 -11.160  0.157E-01  0.157E-01
 -11.150  0.210E-01  0.210E-01
 -11.140  0.271E-01  0.271E-01
 -11.130  0.335E-01  0.335E-01
 -11.120  0.394E-01  0.394E-01
 -11.110  0.444E-01  0.444E-01
 -11.100  0.482E-01  0.482E-01
 -11.090  0.506E-01  0.506E-01
 -11.080  0.518E-01  0.518E-01
 -11.070  0.520E-01  0.520E-01
 -11.060  0.514E-01  0.514E-01
 -11.050  0.502E-01  0.502E-01
 -11.040  0.483E-01  0.483E-01
 -11.030  0.459E-01  0.459E-01
 -11.020  0.428E-01  0.428E-01
 -11.010  0.390E-01  0.390E-01
 -11.000  0.345E-01  0.345E-01
 -10.990  0.295E-01  0.295E-01
 -10.980  0.243E-01  0.243E-01
 -10.970  0.193E-01  0.193E-01
 -10.960  0.149E-01  0.149E-01
 -10.950  0.115E-01  0.115E-01
 -10.940  0.922E-02  0.922E-02
 -10.930  0.836E-02  0.836E-02
 -10.920  0.897E-02  0.897E-02
 -10.910  0.111E-01  0.111E-01
 -10.900  0.147E-01  0.147E-01
 -10.890  0.196E-01  0.196E-01
 -10.880  0.257E-01  0.257E-01
 -10.870  0.326E-01  0.326E-01
 -10.860  0.398E-01  0.398E-01
 -10.850  0.466E-01  0.466E-01
 -10.840  0.525E-01  0.525E-01
 -10.830  0.569E-01  0.569E-01
 -10.820  0.594E-01  0.594E-01
 -10.810  0.599E-01  0.599E-01
 -10.800  0.582E-01  0.582E-01
 -10.790  0.546E-01  0.546E-01
 -10.780  0.495E-01  0.495E-01
 -10.770  0.433E-01  0.433E-01
 -10.760  0.363E-01  0.363E-01
 -10.750  0.292E-01  0.292E-01
 -10.740  0.223E-01  0.223E-01
 -10.730  0.161E-01  0.161E-01
 -10.720  0.110E-01  0.110E-01
 -10.710  0.729E-02  0.729E-02
 -10.700  0.508E-02  0.508E-02
 -10.690  0.445E-02  0.445E-02
 -10.680  0.532E-02  0.532E-02
 -10.670  0.757E-02  0.757E-02
 -10.660  0.110E-01  0.110E-01
 -10.650  0.154E-01  0.154E-01
 -10.640  0.207E-01  0.207E-01
 -10.630  0.267E-01  0.267E-01
 -10.620  0.332E-01  0.332E-01
 -10.610  0.399E-01  0.399E-01
 -10.600  0.464E-01  0.464E-01
 -10.590  0.523E-01  0.523E-01
 -10.580  0.569E-01  0.569E-01
 -10.570  0.597E-01  0.597E-01
 -10.560  0.601E-01  0.601E-01
 -10.550  0.581E-01  0.581E-01
 -10.540  0.537E-01  0.537E-01
 -10.530  0.475E-01  0.475E-01
 -10.520  0.403E-01  0.403E-01
 -10.510  0.329E-01  0.329E-01
 -10.500  0.263E-01  0.263E-01
 -10.490  0.210E-01  0.210E-01
 -10.480  0.174E-01  0.174E-01
 -10.470  0.152E-01  0.152E-01
 -10.460  0.144E-01  0.144E-01
 -10.450  0.143E-01  0.143E-01
 -10.440  0.144E-01  0.144E-01
 -10.430  0.146E-01  0.146E-01
 -10.420  0.146E-01  0.146E-01
 -10.410  0.145E-01  0.145E-01
 -10.400  0.146E-01  0.146E-01
 -10.390  0.154E-01  0.154E-01
 -10.380  0.172E-01  0.172E-01
 -10.370  0.203E-01  0.203E-01
 -10.360  0.248E-01  0.248E-01
 -10.350  0.305E-01  0.305E-01
 -10.340  0.369E-01  0.369E-01
 -10.330  0.434E-01  0.434E-01
 -10.320  0.491E-01  0.491E-01
 -10.310  0.532E-01  0.532E-01
 -10.300  0.550E-01  0.550E-01
 -10.290  0.542E-01  0.542E-01
 -10.280  0.508E-01  0.508E-01
 -10.270  0.453E-01  0.453E-01
 -10.260  0.384E-01  0.384E-01
 -10.250  0.312E-01  0.312E-01
 -10.240  0.244E-01  0.244E-01
 -10.230  0.189E-01  0.189E-01
 -10.220  0.151E-01  0.151E-01
 -10.210  0.131E-01  0.131E-01
 -10.200  0.127E-01  0.127E-01
 -10.190  0.135E-01  0.135E-01
 -10.180  0.150E-01  0.150E-01
 -10.170  0.170E-01  0.170E-01
 -10.160  0.190E-01  0.190E-01
 -10.150  0.209E-01  0.209E-01
 -10.140  0.227E-01  0.227E-01
 -10.130  0.245E-01  0.245E-01
 -10.120  0.266E-01  0.266E-01
 -10.110  0.293E-01  0.293E-01
 -10.100  0.326E-01  0.326E-01
 -10.090  0.365E-01  0.365E-01
 -10.080  0.407E-01  0.407E-01
 -10.070  0.447E-01  0.447E-01
 -10.060  0.476E-01  0.476E-01
 -10.050  0.489E-01  0.489E-01
 -10.040  0.481E-01  0.481E-01
 -10.030  0.450E-01  0.450E-01
 -10.020  0.399E-01  0.399E-01
 -10.010  0.334E-01  0.334E-01
 -10.000  0.264E-01  0.264E-01
  -9.990  0.198E-01  0.198E-01
  -9.980  0.144E-01  0.144E-01
  -9.970  0.106E-01  0.106E-01
  -9.960  0.858E-02  0.858E-02
  -9.950  0.824E-02  0.824E-02
  -9.940  0.920E-02  0.920E-02
  -9.930  0.110E-01  0.110E-01
  -9.920  0.133E-01  0.133E-01
  -9.910  0.159E-01  0.159E-01
  -9.900  0.185E-01  0.185E-01
  -9.890  0.212E-01  0.212E-01
  -9.880  0.241E-01  0.241E-01
  -9.870  0.271E-01  0.271E-01
  -9.860  0.303E-01  0.303E-01
  -9.850  0.337E-01  0.337E-01
  -9.840  0.373E-01  0.373E-01
  -9.830  0.407E-01  0.407E-01
  -9.820  0.437E-01  0.437E-01
  -9.810  0.461E-01  0.461E-01
  -9.800  0.476E-01  0.476E-01
  -9.790  0.479E-01  0.479E-01
  -9.780  0.467E-01  0.467E-01
  -9.770  0.441E-01  0.441E-01
  -9.760  0.401E-01  0.401E-01
  -9.750  0.350E-01  0.350E-01
  -9.740  0.293E-01  0.293E-01
  -9.730  0.235E-01  0.235E-01
  -9.720  0.182E-01  0.182E-01
  -9.710  0.136E-01  0.136E-01
  -9.700  0.101E-01  0.101E-01
  -9.690  0.777E-02  0.777E-02
  -9.680  0.664E-02  0.664E-02
  -9.670  0.657E-02  0.657E-02
  -9.660  0.743E-02  0.743E-02
  -9.650  0.908E-02  0.908E-02
  -9.640  0.114E-01  0.114E-01
  -9.630  0.145E-01  0.145E-01
  -9.620  0.181E-01  0.181E-01
  -9.610  0.222E-01  0.222E-01
  -9.600  0.267E-01  0.267E-01
  -9.590  0.313E-01  0.313E-01
  -9.580  0.357E-01  0.357E-01
  -9.570  0.396E-01  0.396E-01
  -9.560  0.425E-01  0.425E-01
  -9.550  0.441E-01  0.441E-01
  -9.540  0.442E-01  0.442E-01
  -9.530  0.429E-01  0.429E-01
  -9.520  0.402E-01  0.402E-01
  -9.510  0.365E-01  0.365E-01
  -9.500  0.322E-01  0.322E-01
  -9.490  0.278E-01  0.278E-01
  -9.480  0.238E-01  0.238E-01
  -9.470  0.206E-01  0.206E-01
  -9.460  0.184E-01  0.184E-01
  -9.450  0.173E-01  0.173E-01
  -9.440  0.170E-01  0.170E-01
  -9.430  0.172E-01  0.172E-01
  -9.420  0.177E-01  0.177E-01
  -9.410  0.181E-01  0.181E-01
  -9.400  0.182E-01  0.182E-01
  -9.390  0.179E-01  0.179E-01
  -9.380  0.174E-01  0.174E-01
  -9.370  0.169E-01  0.169E-01
  -9.360  0.169E-01  0.169E-01
  -9.350  0.176E-01  0.176E-01
  -9.340  0.192E-01  0.192E-01
  -9.330  0.218E-01  0.218E-01
  -9.320  0.253E-01  0.253E-01
  -9.310  0.295E-01  0.295E-01
  -9.300  0.337E-01  0.337E-01
  -9.290  0.375E-01  0.375E-01
  -9.280  0.403E-01  0.403E-01
  -9.270  0.417E-01  0.417E-01
  -9.260  0.414E-01  0.414E-01
  -9.250  0.393E-01  0.393E-01
  -9.240  0.356E-01  0.356E-01
  -9.230  0.309E-01  0.309E-01
  -9.220  0.256E-01  0.256E-01
  -9.210  0.204E-01  0.204E-01
  -9.200  0.159E-01  0.159E-01
  -9.190  0.124E-01  0.124E-01
  -9.180  0.101E-01  0.101E-01
  -9.170  0.902E-02  0.902E-02
  -9.160  0.902E-02  0.902E-02
  -9.150  0.985E-02  0.985E-02
  -9.140  0.112E-01  0.112E-01
  -9.130  0.129E-01  0.129E-01
  -9.120  0.146E-01  0.146E-01
  -9.110  0.163E-01  0.163E-01
  -9.100  0.181E-01  0.181E-01
  -9.090  0.199E-01  0.199E-01
  -9.080  0.220E-01  0.220E-01
  -9.070  0.246E-01  0.246E-01
  -9.060  0.276E-01  0.276E-01
  -9.050  0.309E-01  0.309E-01
  -9.040  0.344E-01  0.344E-01
  -9.030  0.376E-01  0.376E-01
  -9.020  0.400E-01  0.400E-01
  -9.010  0.411E-01  0.411E-01
  -9.000  0.408E-01  0.408E-01
  -8.990  0.388E-01  0.388E-01
  -8.980  0.353E-01  0.353E-01
  -8.970  0.308E-01  0.308E-01
  -8.960  0.257E-01  0.257E-01
  -8.950  0.205E-01  0.205E-01
  -8.940  0.159E-01  0.159E-01
  -8.930  0.122E-01  0.122E-01
  -8.920  0.969E-02  0.969E-02
  -8.910  0.835E-02  0.835E-02
  -8.900  0.814E-02  0.814E-02
  -8.890  0.887E-02  0.887E-02
  -8.880  0.103E-01  0.103E-01
  -8.870  0.122E-01  0.122E-01
  -8.860  0.143E-01  0.143E-01
  -8.850  0.164E-01  0.164E-01
  -8.840  0.183E-01  0.183E-01
  -8.830  0.199E-01  0.199E-01
  -8.820  0.212E-01  0.212E-01
  -8.810  0.222E-01  0.222E-01
  -8.800  0.230E-01  0.230E-01
  -8.790  0.236E-01  0.236E-01
  -8.780  0.242E-01  0.242E-01
  -8.770  0.247E-01  0.247E-01
  -8.760  0.253E-01  0.253E-01
  -8.750  0.258E-01  0.258E-01
  -8.740  0.261E-01  0.261E-01
  -8.730  0.263E-01  0.263E-01
  -8.720  0.263E-01  0.263E-01
  -8.710  0.260E-01  0.260E-01
  -8.700  0.256E-01  0.256E-01
  -8.690  0.249E-01  0.249E-01
  -8.680  0.242E-01  0.242E-01
  -8.670  0.232E-01  0.232E-01
  -8.660  0.221E-01  0.221E-01
  -8.650  0.209E-01  0.209E-01
  -8.640  0.195E-01  0.195E-01
  -8.630  0.181E-01  0.181E-01
  -8.620  0.167E-01  0.167E-01
  -8.610  0.156E-01  0.156E-01
  -8.600  0.148E-01  0.148E-01
  -8.590  0.143E-01  0.143E-01
  -8.580  0.144E-01  0.144E-01
  -8.570  0.150E-01  0.150E-01
  -8.560  0.160E-01  0.160E-01
  -8.550  0.175E-01  0.175E-01
  -8.540  0.193E-01  0.193E-01
  -8.530  0.212E-01  0.212E-01
  -8.520  0.229E-01  0.229E-01
  -8.510  0.243E-01  0.243E-01
  -8.500  0.251E-01  0.251E-01
  -8.490  0.252E-01  0.252E-01
  -8.480  0.243E-01  0.243E-01
  -8.470  0.226E-01  0.226E-01
  -8.460  0.202E-01  0.202E-01
  -8.450  0.175E-01  0.175E-01
  -8.440  0.146E-01  0.146E-01
  -8.430  0.122E-01  0.122E-01
  -8.420  0.103E-01  0.103E-01
  -8.410  0.926E-02  0.926E-02
  -8.400  0.910E-02  0.910E-02
  -8.390  0.974E-02  0.974E-02
  -8.380  0.110E-01  0.110E-01
  -8.370  0.125E-01  0.125E-01
  -8.360  0.142E-01  0.142E-01
  -8.350  0.159E-01  0.159E-01
  -8.340  0.175E-01  0.175E-01
  -8.330  0.189E-01  0.189E-01
  -8.320  0.204E-01  0.204E-01
  -8.310  0.219E-01  0.219E-01
  -8.300  0.235E-01  0.235E-01
  -8.290  0.251E-01  0.251E-01
  -8.280  0.265E-01  0.265E-01
  -8.270  0.276E-01  0.276E-01
  -8.260  0.281E-01  0.281E-01
  -8.250  0.276E-01  0.276E-01
  -8.240  0.262E-01  0.262E-01
  -8.230  0.237E-01  0.237E-01
  -8.220  0.205E-01  0.205E-01
  -8.210  0.168E-01  0.168E-01
  -8.200  0.131E-01  0.131E-01
  -8.190  0.978E-02  0.978E-02
  -8.180  0.712E-02  0.712E-02
  -8.170  0.535E-02  0.535E-02
  -8.160  0.452E-02  0.452E-02
  -8.150  0.453E-02  0.453E-02
  -8.140  0.519E-02  0.519E-02
  -8.130  0.629E-02  0.629E-02
  -8.120  0.760E-02  0.760E-02
  -8.110  0.894E-02  0.894E-02
  -8.100  0.102E-01  0.102E-01
  -8.090  0.113E-01  0.113E-01
  -8.080  0.122E-01  0.122E-01
  -8.070  0.131E-01  0.131E-01
  -8.060  0.138E-01  0.138E-01
  -8.050  0.146E-01  0.146E-01
  -8.040  0.153E-01  0.153E-01
  -8.030  0.162E-01  0.162E-01
  -8.020  0.172E-01  0.172E-01
  -8.010  0.182E-01  0.182E-01
  -8.000  0.191E-01  0.191E-01
  -7.990  0.199E-01  0.199E-01
  -7.980  0.204E-01  0.204E-01
  -7.970  0.204E-01  0.204E-01
  -7.960  0.200E-01  0.200E-01
  -7.950  0.191E-01  0.191E-01
  -7.940  0.179E-01  0.179E-01
  -7.930  0.164E-01  0.164E-01
  -7.920  0.149E-01  0.149E-01
  -7.910  0.133E-01  0.133E-01
  -7.900  0.118E-01  0.118E-01
  -7.890  0.105E-01  0.105E-01
  -7.880  0.938E-02  0.938E-02
  -7.870  0.843E-02  0.843E-02
  -7.860  0.771E-02  0.771E-02
  -7.850  0.725E-02  0.725E-02
  -7.840  0.712E-02  0.712E-02
  -7.830  0.735E-02  0.735E-02
  -7.820  0.795E-02  0.795E-02
  -7.810  0.888E-02  0.888E-02
  -7.800  0.101E-01  0.101E-01
  -7.790  0.114E-01  0.114E-01
  -7.780  0.127E-01  0.127E-01
  -7.770  0.138E-01  0.138E-01
  -7.760  0.146E-01  0.146E-01
  -7.750  0.150E-01  0.150E-01
  -7.740  0.149E-01  0.149E-01
  -7.730  0.144E-01  0.144E-01
  -7.720  0.135E-01  0.135E-01
  -7.710  0.124E-01  0.124E-01
  -7.700  0.111E-01  0.111E-01
  -7.690  0.992E-02  0.992E-02
  -7.680  0.896E-02  0.896E-02
  -7.670  0.836E-02  0.836E-02
  -7.660  0.814E-02  0.814E-02
  -7.650  0.828E-02  0.828E-02
  -7.640  0.865E-02  0.865E-02
  -7.630  0.912E-02  0.912E-02
  -7.620  0.954E-02  0.954E-02
  -7.610  0.983E-02  0.983E-02
  -7.600  0.998E-02  0.998E-02
  -7.590  0.101E-01  0.101E-01
  -7.580  0.103E-01  0.103E-01
  -7.570  0.107E-01  0.107E-01
  -7.560  0.114E-01  0.114E-01
  -7.550  0.125E-01  0.125E-01
  -7.540  0.138E-01  0.138E-01
  -7.530  0.151E-01  0.151E-01
  -7.520  0.160E-01  0.160E-01
  -7.510  0.165E-01  0.165E-01
  -7.500  0.163E-01  0.163E-01
  -7.490  0.153E-01  0.153E-01
  -7.480  0.138E-01  0.138E-01
  -7.470  0.118E-01  0.118E-01
  -7.460  0.963E-02  0.963E-02
  -7.450  0.760E-02  0.760E-02
  -7.440  0.590E-02  0.590E-02
  -7.430  0.466E-02  0.466E-02
  -7.420  0.394E-02  0.394E-02
  -7.410  0.370E-02  0.370E-02
  -7.400  0.387E-02  0.387E-02
  -7.390  0.435E-02  0.435E-02
  -7.380  0.507E-02  0.507E-02
  -7.370  0.594E-02  0.594E-02
  -7.360  0.688E-02  0.688E-02
  -7.350  0.784E-02  0.784E-02
  -7.340  0.872E-02  0.872E-02
  -7.330  0.947E-02  0.947E-02
  -7.320  0.100E-01  0.100E-01
  -7.310  0.104E-01  0.104E-01
  -7.300  0.105E-01  0.105E-01
  -7.290  0.105E-01  0.105E-01
  -7.280  0.103E-01  0.103E-01
  -7.270  0.102E-01  0.102E-01
  -7.260  0.100E-01  0.100E-01
  -7.250  0.994E-02  0.994E-02
  -7.240  0.993E-02  0.993E-02
  -7.230  0.996E-02  0.996E-02
  -7.220  0.998E-02  0.998E-02
  -7.210  0.994E-02  0.994E-02
  -7.200  0.981E-02  0.981E-02
  -7.190  0.957E-02  0.957E-02
  -7.180  0.923E-02  0.923E-02
  -7.170  0.881E-02  0.881E-02
  -7.160  0.835E-02  0.835E-02
  -7.150  0.789E-02  0.789E-02
  -7.140  0.747E-02  0.747E-02
  -7.130  0.715E-02  0.715E-02
  -7.120  0.695E-02  0.695E-02
  -7.110  0.691E-02  0.691E-02
  -7.100  0.703E-02  0.703E-02
  -7.090  0.730E-02  0.730E-02
  -7.080  0.767E-02  0.767E-02
  -7.070  0.809E-02  0.809E-02
  -7.060  0.846E-02  0.846E-02
  -7.050  0.870E-02  0.870E-02
  -7.040  0.872E-02  0.872E-02
  -7.030  0.847E-02  0.847E-02
  -7.020  0.795E-02  0.795E-02
  -7.010  0.720E-02  0.720E-02
  -7.000  0.630E-02  0.630E-02
  -6.990  0.536E-02  0.536E-02
  -6.980  0.451E-02  0.451E-02
  -6.970  0.384E-02  0.384E-02
  -6.960  0.345E-02  0.345E-02
  -6.950  0.337E-02  0.337E-02
  -6.940  0.359E-02  0.359E-02
  -6.930  0.406E-02  0.406E-02
  -6.920  0.471E-02  0.471E-02
  -6.910  0.542E-02  0.542E-02
  -6.900  0.613E-02  0.613E-02
  -6.890  0.677E-02  0.677E-02
  -6.880  0.734E-02  0.734E-02
  -6.870  0.786E-02  0.786E-02
  -6.860  0.839E-02  0.839E-02
  -6.850  0.898E-02  0.898E-02
  -6.840  0.965E-02  0.965E-02
  -6.830  0.104E-01  0.104E-01
  -6.820  0.110E-01  0.110E-01
  -6.810  0.115E-01  0.115E-01
  -6.800  0.116E-01  0.116E-01
  -6.790  0.112E-01  0.112E-01
  -6.780  0.104E-01  0.104E-01
  -6.770  0.908E-02  0.908E-02
  -6.760  0.748E-02  0.748E-02
  -6.750  0.576E-02  0.576E-02
  -6.740  0.412E-02  0.412E-02
  -6.730  0.272E-02  0.272E-02
  -6.720  0.169E-02  0.169E-02
  -6.710  0.106E-02  0.106E-02
  -6.700  0.823E-03  0.823E-03
  -6.690  0.934E-03  0.934E-03
  -6.680  0.132E-02  0.132E-02
  -6.670  0.192E-02  0.192E-02
  -6.660  0.265E-02  0.265E-02
  -6.650  0.344E-02  0.344E-02
  -6.640  0.424E-02  0.424E-02
  -6.630  0.498E-02  0.498E-02
  -6.620  0.561E-02  0.561E-02
  -6.610  0.610E-02  0.610E-02
  -6.600  0.642E-02  0.642E-02
  -6.590  0.660E-02  0.660E-02
  -6.580  0.666E-02  0.666E-02
  -6.570  0.666E-02  0.666E-02
  -6.560  0.665E-02  0.665E-02
  -6.550  0.667E-02  0.667E-02
  -6.540  0.674E-02  0.674E-02
  -6.530  0.686E-02  0.686E-02
  -6.520  0.700E-02  0.700E-02
  -6.510  0.710E-02  0.710E-02
  -6.500  0.711E-02  0.711E-02
  -6.490  0.698E-02  0.698E-02
  -6.480  0.667E-02  0.667E-02
  -6.470  0.621E-02  0.621E-02
  -6.460  0.562E-02  0.562E-02
  -6.450  0.497E-02  0.497E-02
  -6.440  0.435E-02  0.435E-02
  -6.430  0.383E-02  0.383E-02
  -6.420  0.347E-02  0.347E-02
  -6.410  0.327E-02  0.327E-02
  -6.400  0.323E-02  0.323E-02
  -6.390  0.329E-02  0.329E-02
  -6.380  0.338E-02  0.338E-02
  -6.370  0.343E-02  0.343E-02
  -6.360  0.340E-02  0.340E-02
  -6.350  0.327E-02  0.327E-02
  -6.340  0.307E-02  0.307E-02
  -6.330  0.286E-02  0.286E-02
  -6.320  0.270E-02  0.270E-02
  -6.310  0.264E-02  0.264E-02
  -6.300  0.273E-02  0.273E-02
  -6.290  0.297E-02  0.297E-02
  -6.280  0.333E-02  0.333E-02
  -6.270  0.376E-02  0.376E-02
  -6.260  0.421E-02  0.421E-02
  -6.250  0.462E-02  0.462E-02
  -6.240  0.494E-02  0.494E-02
  -6.230  0.515E-02  0.515E-02
  -6.220  0.525E-02  0.525E-02
  -6.210  0.527E-02  0.527E-02
  -6.200  0.522E-02  0.522E-02
  -6.190  0.515E-02  0.515E-02
  -6.180  0.506E-02  0.506E-02
  -6.170  0.497E-02  0.497E-02
  -6.160  0.485E-02  0.485E-02
  -6.150  0.466E-02  0.466E-02
  -6.140  0.439E-02  0.439E-02
  -6.130  0.401E-02  0.401E-02
  -6.120  0.354E-02  0.354E-02
  -6.110  0.302E-02  0.302E-02
  -6.100  0.251E-02  0.251E-02
  -6.090  0.208E-02  0.208E-02
  -6.080  0.181E-02  0.181E-02
  -6.070  0.171E-02  0.171E-02
  -6.060  0.181E-02  0.181E-02
  -6.050  0.206E-02  0.206E-02
  -6.040  0.241E-02  0.241E-02
  -6.030  0.280E-02  0.280E-02
  -6.020  0.315E-02  0.315E-02
  -6.010  0.339E-02  0.339E-02
  -6.000  0.349E-02  0.349E-02
  -5.990  0.343E-02  0.343E-02
  -5.980  0.322E-02  0.322E-02
  -5.970  0.289E-02  0.289E-02
  -5.960  0.251E-02  0.251E-02
  -5.950  0.214E-02  0.214E-02
  -5.940  0.185E-02  0.185E-02
  -5.930  0.171E-02  0.171E-02
  -5.920  0.174E-02  0.174E-02
  -5.910  0.196E-02  0.196E-02
  -5.900  0.233E-02  0.233E-02
  -5.890  0.279E-02  0.279E-02
  -5.880  0.329E-02  0.329E-02
  -5.870  0.376E-02  0.376E-02
  -5.860  0.412E-02  0.412E-02
  -5.850  0.434E-02  0.434E-02
  -5.840  0.439E-02  0.439E-02
  -5.830  0.427E-02  0.427E-02
  -5.820  0.400E-02  0.400E-02
  -5.810  0.360E-02  0.360E-02
  -5.800  0.310E-02  0.310E-02
  -5.790  0.254E-02  0.254E-02
  -5.780  0.196E-02  0.196E-02
  -5.770  0.141E-02  0.141E-02
  -5.760  0.928E-03  0.928E-03
  -5.750  0.554E-03  0.554E-03
  -5.740  0.314E-03  0.314E-03
  -5.730  0.224E-03  0.224E-03
  -5.720  0.286E-03  0.286E-03
  -5.710  0.488E-03  0.488E-03
  -5.700  0.804E-03  0.804E-03
  -5.690  0.120E-02  0.120E-02
  -5.680  0.163E-02  0.163E-02
  -5.670  0.205E-02  0.205E-02
  -5.660  0.242E-02  0.242E-02
  -5.650  0.271E-02  0.271E-02
  -5.640  0.289E-02  0.289E-02
  -5.630  0.298E-02  0.298E-02
  -5.620  0.297E-02  0.297E-02
  -5.610  0.288E-02  0.288E-02
  -5.600  0.274E-02  0.274E-02
  -5.590  0.256E-02  0.256E-02
  -5.580  0.235E-02  0.235E-02
  -5.570  0.212E-02  0.212E-02
  -5.560  0.187E-02  0.187E-02
  -5.550  0.163E-02  0.163E-02
  -5.540  0.138E-02  0.138E-02
  -5.530  0.116E-02  0.116E-02
  -5.520  0.984E-03  0.984E-03
  -5.510  0.855E-03  0.855E-03
  -5.500  0.780E-03  0.780E-03
  -5.490  0.754E-03  0.754E-03
  -5.480  0.764E-03  0.764E-03
  -5.470  0.794E-03  0.794E-03
  -5.460  0.834E-03  0.834E-03
  -5.450  0.877E-03  0.877E-03
  -5.440  0.927E-03  0.927E-03
  -5.430  0.990E-03  0.990E-03
  -5.420  0.107E-02  0.107E-02
  -5.410  0.118E-02  0.118E-02
  -5.400  0.131E-02  0.131E-02
  -5.390  0.144E-02  0.144E-02
  -5.380  0.157E-02  0.157E-02
  -5.370  0.165E-02  0.165E-02
  -5.360  0.168E-02  0.168E-02
  -5.350  0.164E-02  0.164E-02
  -5.340  0.154E-02  0.154E-02
  -5.330  0.137E-02  0.137E-02
  -5.320  0.117E-02  0.117E-02
  -5.310  0.957E-03  0.957E-03
  -5.300  0.756E-03  0.756E-03
  -5.290  0.588E-03  0.588E-03
  -5.280  0.469E-03  0.469E-03
  -5.270  0.402E-03  0.402E-03
  -5.260  0.384E-03  0.384E-03
  -5.250  0.404E-03  0.404E-03
  -5.240  0.450E-03  0.450E-03
  -5.230  0.509E-03  0.509E-03
  -5.220  0.570E-03  0.570E-03
  -5.210  0.627E-03  0.627E-03
  -5.200  0.676E-03  0.676E-03
  -5.190  0.718E-03  0.718E-03
  -5.180  0.750E-03  0.750E-03
  -5.170  0.771E-03  0.771E-03
  -5.160  0.776E-03  0.776E-03
  -5.150  0.760E-03  0.760E-03
  -5.140  0.719E-03  0.719E-03
  -5.130  0.653E-03  0.653E-03
  -5.120  0.565E-03  0.565E-03
  -5.110  0.465E-03  0.465E-03
  -5.100  0.365E-03  0.365E-03
  -5.090  0.279E-03  0.279E-03
  -5.080  0.216E-03  0.216E-03
  -5.070  0.183E-03  0.183E-03
  -5.060  0.177E-03  0.177E-03
  -5.050  0.193E-03  0.193E-03
  -5.040  0.221E-03  0.221E-03
  -5.030  0.251E-03  0.251E-03
  -5.020  0.273E-03  0.273E-03
  -5.010  0.281E-03  0.281E-03
  -5.000  0.272E-03  0.272E-03
  -4.990  0.249E-03  0.249E-03
  -4.980  0.214E-03  0.214E-03
  -4.970  0.173E-03  0.173E-03
  -4.960  0.132E-03  0.132E-03
  -4.950  0.957E-04  0.957E-04
  -4.940  0.660E-04  0.660E-04
  -4.930  0.440E-04  0.440E-04
  -4.920  0.291E-04  0.291E-04
  -4.910  0.196E-04  0.196E-04
  -4.900  0.136E-04  0.136E-04
  -4.890  0.927E-05  0.927E-05
  -4.880  0.548E-05  0.548E-05
  -4.870  0.175E-05  0.175E-05
  -4.860 -0.187E-05 -0.187E-05
  -4.850 -0.504E-05 -0.504E-05
  -4.840 -0.738E-05 -0.738E-05
  -4.830 -0.867E-05 -0.867E-05
  -4.820 -0.890E-05 -0.890E-05
  -4.810 -0.827E-05 -0.827E-05
  -4.800 -0.707E-05 -0.707E-05
  -4.790 -0.563E-05 -0.563E-05
  -4.780 -0.419E-05 -0.419E-05
  -4.770 -0.294E-05 -0.294E-05
  -4.760 -0.195E-05 -0.195E-05
  -4.750 -0.122E-05 -0.122E-05
  -4.740 -0.724E-06 -0.724E-06
  -4.730 -0.408E-06 -0.408E-06
  -4.720 -0.219E-06 -0.219E-06
  -4.710 -0.112E-06 -0.112E-06
  -4.700 -0.543E-07 -0.543E-07
  -4.690 -0.252E-07 -0.252E-07
  -4.680 -0.111E-07 -0.111E-07
  -4.670 -0.469E-08 -0.469E-08
  -4.660 -0.189E-08 -0.189E-08
  -4.650 -0.724E-09 -0.724E-09
  -4.640 -0.266E-09 -0.266E-09
  -4.630 -0.928E-10 -0.928E-10
  -4.620 -0.307E-10 -0.307E-10
  -4.610 -0.940E-11 -0.940E-11
  -4.600 -0.230E-11 -0.230E-11
  -4.590  0.115E-12  0.115E-12
  -4.580  0.136E-11  0.136E-11
  -4.570  0.182E-11  0.182E-11
  -4.560  0.239E-11  0.239E-11
  -4.550  0.304E-11  0.304E-11
  -4.540  0.374E-11  0.374E-11
  -4.530  0.445E-11  0.445E-11
  -4.520  0.511E-11  0.511E-11
  -4.510  0.570E-11  0.570E-11
  -4.500  0.616E-11  0.616E-11
  -4.490  0.649E-11  0.649E-11
  -4.480  0.666E-11  0.666E-11
  -4.470  0.669E-11  0.669E-11
  -4.460  0.656E-11  0.656E-11
  -4.450  0.629E-11  0.629E-11
  -4.440  0.587E-11  0.587E-11
  -4.430  0.532E-11  0.532E-11
  -4.420  0.468E-11  0.468E-11
  -4.410  0.397E-11  0.397E-11
  -4.400  0.325E-11  0.325E-11
  -4.390  0.259E-11  0.259E-11
  -4.380  0.204E-11  0.204E-11
  -4.370  0.165E-11  0.165E-11
  -4.360  0.143E-11  0.143E-11
  -4.350  0.139E-11  0.139E-11
  -4.340  0.151E-11  0.151E-11
  -4.330  0.178E-11  0.178E-11
  -4.320  0.220E-11  0.220E-11
  -4.310  0.281E-11  0.281E-11
  -4.300  0.367E-11  0.367E-11
  -4.290  0.489E-11  0.489E-11
  -4.280  0.661E-11  0.661E-11
  -4.270  0.896E-11  0.896E-11
  -4.260  0.121E-10  0.121E-10
  -4.250  0.160E-10  0.160E-10
  -4.240  0.206E-10  0.206E-10
  -4.230  0.257E-10  0.257E-10
  -4.220  0.309E-10  0.309E-10
  -4.210  0.357E-10  0.357E-10
  -4.200  0.393E-10  0.393E-10
  -4.190  0.414E-10  0.414E-10
  -4.180  0.416E-10  0.416E-10
  -4.170  0.398E-10  0.398E-10
  -4.160  0.362E-10  0.362E-10
  -4.150  0.314E-10  0.314E-10
  -4.140  0.261E-10  0.261E-10
  -4.130  0.209E-10  0.209E-10
  -4.120  0.164E-10  0.164E-10
  -4.110  0.129E-10  0.129E-10
  -4.100  0.106E-10  0.106E-10
  -4.090  0.923E-11  0.923E-11
  -4.080  0.859E-11  0.859E-11
  -4.070  0.834E-11  0.834E-11
  -4.060  0.818E-11  0.818E-11
  -4.050  0.795E-11  0.795E-11
  -4.040  0.753E-11  0.753E-11
  -4.030  0.694E-11  0.694E-11
  -4.020  0.622E-11  0.622E-11
  -4.010  0.544E-11  0.544E-11
  -4.000  0.471E-11  0.471E-11
  -3.990  0.410E-11  0.410E-11
  -3.980  0.369E-11  0.369E-11
  -3.970  0.355E-11  0.355E-11
  -3.960  0.372E-11  0.372E-11
  -3.950  0.422E-11  0.422E-11
  -3.940  0.502E-11  0.502E-11
  -3.930  0.606E-11  0.606E-11
  -3.920  0.722E-11  0.722E-11
  -3.910  0.840E-11  0.840E-11
  -3.900  0.945E-11  0.945E-11
  -3.890  0.103E-10  0.103E-10
  -3.880  0.107E-10  0.107E-10
  -3.870  0.108E-10  0.108E-10
  -3.860  0.105E-10  0.105E-10
  -3.850  0.971E-11  0.971E-11
  -3.840  0.861E-11  0.861E-11
  -3.830  0.725E-11  0.725E-11
  -3.820  0.576E-11  0.576E-11
  -3.810  0.427E-11  0.427E-11
  -3.800  0.290E-11  0.290E-11
  -3.790  0.175E-11  0.175E-11
  -3.780  0.894E-12  0.894E-12
  -3.770  0.329E-12  0.329E-12
  -3.760  0.296E-13  0.296E-13
  -3.750 -0.630E-13 -0.630E-13
  -3.740 -0.184E-13 -0.184E-13
  -3.730  0.997E-13  0.997E-13
  -3.720  0.245E-12  0.245E-12
  -3.710  0.394E-12  0.394E-12
  -3.700  0.542E-12  0.542E-12
  -3.690  0.701E-12  0.701E-12
  -3.680  0.889E-12  0.889E-12
  -3.670  0.113E-11  0.113E-11
  -3.660  0.143E-11  0.143E-11
  -3.650  0.182E-11  0.182E-11
  -3.640  0.229E-11  0.229E-11
  -3.630  0.284E-11  0.284E-11
  -3.620  0.348E-11  0.348E-11
  -3.610  0.418E-11  0.418E-11
  -3.600  0.493E-11  0.493E-11
  -3.590  0.572E-11  0.572E-11
  -3.580  0.651E-11  0.651E-11
  -3.570  0.728E-11  0.728E-11
  -3.560  0.802E-11  0.802E-11
  -3.550  0.869E-11  0.869E-11
  -3.540  0.927E-11  0.927E-11
  -3.530  0.971E-11  0.971E-11
  -3.520  0.997E-11  0.997E-11
  -3.510  0.100E-10  0.100E-10
  -3.500  0.976E-11  0.976E-11
  -3.490  0.924E-11  0.924E-11
  -3.480  0.844E-11  0.844E-11
  -3.470  0.743E-11  0.743E-11
  -3.460  0.628E-11  0.628E-11
  -3.450  0.512E-11  0.512E-11
  -3.440  0.409E-11  0.409E-11
  -3.430  0.329E-11  0.329E-11
  -3.420  0.280E-11  0.280E-11
  -3.410  0.265E-11  0.265E-11
  -3.400  0.279E-11  0.279E-11
  -3.390  0.315E-11  0.315E-11
  -3.380  0.364E-11  0.364E-11
  -3.370  0.414E-11  0.414E-11
  -3.360  0.460E-11  0.460E-11
  -3.350  0.497E-11  0.497E-11
  -3.340  0.526E-11  0.526E-11
  -3.330  0.548E-11  0.548E-11
  -3.320  0.567E-11  0.567E-11
  -3.310  0.583E-11  0.583E-11
  -3.300  0.593E-11  0.593E-11
  -3.290  0.595E-11  0.595E-11
  -3.280  0.583E-11  0.583E-11
  -3.270  0.556E-11  0.556E-11
  -3.260  0.514E-11  0.514E-11
  -3.250  0.462E-11  0.462E-11
  -3.240  0.408E-11  0.408E-11
  -3.230  0.361E-11  0.361E-11
  -3.220  0.328E-11  0.328E-11
  -3.210  0.317E-11  0.317E-11
  -3.200  0.330E-11  0.330E-11
  -3.190  0.364E-11  0.364E-11
  -3.180  0.415E-11  0.415E-11
  -3.170  0.472E-11  0.472E-11
  -3.160  0.524E-11  0.524E-11
  -3.150  0.561E-11  0.561E-11
  -3.140  0.575E-11  0.575E-11
  -3.130  0.561E-11  0.561E-11
  -3.120  0.521E-11  0.521E-11
  -3.110  0.463E-11  0.463E-11
  -3.100  0.400E-11  0.400E-11
  -3.090  0.347E-11  0.347E-11
  -3.080  0.318E-11  0.318E-11
  -3.070  0.324E-11  0.324E-11
  -3.060  0.370E-11  0.370E-11
  -3.050  0.453E-11  0.453E-11
  -3.040  0.561E-11  0.561E-11
  -3.030  0.680E-11  0.680E-11
  -3.020  0.792E-11  0.792E-11
  -3.010  0.879E-11  0.879E-11
  -3.000  0.933E-11  0.933E-11
  -2.990  0.947E-11  0.947E-11
  -2.980  0.927E-11  0.927E-11
  -2.970  0.881E-11  0.881E-11
  -2.960  0.821E-11  0.821E-11
  -2.950  0.758E-11  0.758E-11
  -2.940  0.697E-11  0.697E-11
  -2.930  0.641E-11  0.641E-11
  -2.920  0.586E-11  0.586E-11
  -2.910  0.530E-11  0.530E-11
  -2.900  0.468E-11  0.468E-11
  -2.890  0.401E-11  0.401E-11
  -2.880  0.333E-11  0.333E-11
  -2.870  0.270E-11  0.270E-11
  -2.860  0.219E-11  0.219E-11
  -2.850  0.189E-11  0.189E-11
  -2.840  0.183E-11  0.183E-11
  -2.830  0.206E-11  0.206E-11
  -2.820  0.259E-11  0.259E-11
  -2.810  0.344E-11  0.344E-11
  -2.800  0.459E-11  0.459E-11
  -2.790  0.602E-11  0.602E-11
  -2.780  0.765E-11  0.765E-11
  -2.770  0.935E-11  0.935E-11
  -2.760  0.109E-10  0.109E-10
  -2.750  0.122E-10  0.122E-10
  -2.740  0.129E-10  0.129E-10
  -2.730  0.129E-10  0.129E-10
  -2.720  0.122E-10  0.122E-10
  -2.710  0.107E-10  0.107E-10
  -2.700  0.876E-11  0.876E-11
  -2.690  0.652E-11  0.652E-11
  -2.680  0.430E-11  0.430E-11
  -2.670  0.236E-11  0.236E-11
  -2.660  0.886E-12  0.886E-12
  -2.650 -0.456E-13 -0.456E-13
  -2.640 -0.448E-12 -0.448E-12
  -2.630 -0.413E-12 -0.413E-12
  -2.620 -0.756E-13 -0.756E-13
  -2.610  0.421E-12  0.421E-12
  -2.600  0.954E-12  0.954E-12
  -2.590  0.144E-11  0.144E-11
  -2.580  0.183E-11  0.183E-11
  -2.570  0.212E-11  0.212E-11
  -2.560  0.234E-11  0.234E-11
  -2.550  0.254E-11  0.254E-11
  -2.540  0.274E-11  0.274E-11
  -2.530  0.297E-11  0.297E-11
  -2.520  0.322E-11  0.322E-11
  -2.510  0.346E-11  0.346E-11
  -2.500  0.363E-11  0.363E-11
  -2.490  0.368E-11  0.368E-11
  -2.480  0.357E-11  0.357E-11
  -2.470  0.327E-11  0.327E-11
  -2.460  0.281E-11  0.281E-11
  -2.450  0.223E-11  0.223E-11
  -2.440  0.159E-11  0.159E-11
  -2.430  0.967E-12  0.967E-12
  -2.420  0.428E-12  0.428E-12
  -2.410  0.109E-13  0.109E-13
  -2.400 -0.268E-12 -0.268E-12
  -2.390 -0.415E-12 -0.415E-12
  -2.380 -0.453E-12 -0.453E-12
  -2.370 -0.413E-12 -0.413E-12
  -2.360 -0.326E-12 -0.326E-12
  -2.350 -0.215E-12 -0.215E-12
  -2.340 -0.993E-13 -0.993E-13
  -2.330  0.125E-13  0.125E-13
  -2.320  0.116E-12  0.116E-12
  -2.310  0.209E-12  0.209E-12
  -2.300  0.292E-12  0.292E-12
  -2.290  0.365E-12  0.365E-12
  -2.280  0.431E-12  0.431E-12
  -2.270  0.492E-12  0.492E-12
  -2.260  0.552E-12  0.552E-12
  -2.250  0.618E-12  0.618E-12
  -2.240  0.692E-12  0.692E-12
  -2.230  0.776E-12  0.776E-12
  -2.220  0.866E-12  0.866E-12
  -2.210  0.953E-12  0.953E-12
  -2.200  0.102E-11  0.102E-11
  -2.190  0.106E-11  0.106E-11
  -2.180  0.104E-11  0.104E-11
  -2.170  0.975E-12  0.975E-12
  -2.160  0.854E-12  0.854E-12
  -2.150  0.693E-12  0.693E-12
  -2.140  0.509E-12  0.509E-12
  -2.130  0.325E-12  0.325E-12
  -2.120  0.160E-12  0.160E-12
  -2.110  0.299E-13  0.299E-13
  -2.100 -0.595E-13 -0.595E-13
  -2.090 -0.108E-12 -0.108E-12
  -2.080 -0.121E-12 -0.121E-12
  -2.070 -0.107E-12 -0.107E-12
  -2.060 -0.742E-13 -0.742E-13
  -2.050 -0.310E-13 -0.310E-13
  -2.040  0.174E-13  0.174E-13
  -2.030  0.669E-13  0.669E-13
  -2.020  0.115E-12  0.115E-12
  -2.010  0.158E-12  0.158E-12
  -2.000  0.194E-12  0.194E-12
  -1.990  0.219E-12  0.219E-12
  -1.980  0.230E-12  0.230E-12
  -1.970  0.228E-12  0.228E-12
  -1.960  0.210E-12  0.210E-12
  -1.950  0.180E-12  0.180E-12
  -1.940  0.142E-12  0.142E-12
  -1.930  0.100E-12  0.100E-12
  -1.920  0.603E-13  0.603E-13
  -1.910  0.257E-13  0.257E-13
  -1.900 -0.570E-15 -0.570E-15
  -1.890 -0.179E-13 -0.179E-13
  -1.880 -0.268E-13 -0.268E-13
  -1.870 -0.292E-13 -0.292E-13
  -1.860 -0.271E-13 -0.271E-13
  -1.850 -0.226E-13 -0.226E-13
  -1.840 -0.173E-13 -0.173E-13
  -1.830 -0.124E-13 -0.124E-13
  -1.820 -0.826E-14 -0.826E-14
  -1.810 -0.516E-14 -0.516E-14
  -1.800 -0.293E-14 -0.293E-14
  -1.790 -0.129E-14 -0.129E-14
  -1.780  0.152E-15  0.152E-15
  -1.770  0.192E-14  0.192E-14
  -1.760  0.477E-14  0.477E-14
  -1.750  0.983E-14  0.983E-14
  -1.740  0.188E-13  0.188E-13
  -1.730  0.342E-13  0.342E-13
  -1.720  0.592E-13  0.592E-13
  -1.710  0.979E-13  0.979E-13
  -1.700  0.155E-12  0.155E-12
  -1.690  0.233E-12  0.233E-12
  -1.680  0.334E-12  0.334E-12
  -1.670  0.457E-12  0.457E-12
  -1.660  0.596E-12  0.596E-12
  -1.650  0.739E-12  0.739E-12
  -1.640  0.871E-12  0.871E-12
  -1.630  0.973E-12  0.973E-12
  -1.620  0.103E-11  0.103E-11
  -1.610  0.103E-11  0.103E-11
  -1.600  0.963E-12  0.963E-12
  -1.590  0.843E-12  0.843E-12
  -1.580  0.682E-12  0.682E-12
  -1.570  0.500E-12  0.500E-12
  -1.560  0.322E-12  0.322E-12
  -1.550  0.168E-12  0.168E-12
  -1.540  0.534E-13  0.534E-13
  -1.530 -0.110E-13 -0.110E-13
  -1.520 -0.216E-13 -0.216E-13
  -1.510  0.222E-13  0.222E-13
  -1.500  0.119E-12  0.119E-12
  -1.490  0.267E-12  0.267E-12
  -1.480  0.464E-12  0.464E-12
  -1.470  0.705E-12  0.705E-12
  -1.460  0.980E-12  0.980E-12
  -1.450  0.127E-11  0.127E-11
  -1.440  0.156E-11  0.156E-11
  -1.430  0.181E-11  0.181E-11
  -1.420  0.200E-11  0.200E-11
  -1.410  0.210E-11  0.210E-11
  -1.400  0.212E-11  0.212E-11
  -1.390  0.204E-11  0.204E-11
  -1.380  0.189E-11  0.189E-11
  -1.370  0.171E-11  0.171E-11
  -1.360  0.151E-11  0.151E-11
  -1.350  0.132E-11  0.132E-11
  -1.340  0.116E-11  0.116E-11
  -1.330  0.102E-11  0.102E-11
  -1.320  0.887E-12  0.887E-12
  -1.310  0.759E-12  0.759E-12
  -1.300  0.623E-12  0.623E-12
  -1.290  0.477E-12  0.477E-12
  -1.280  0.327E-12  0.327E-12
  -1.270  0.183E-12  0.183E-12
  -1.260  0.583E-13  0.583E-13
  -1.250 -0.363E-13 -0.363E-13
  -1.240 -0.956E-13 -0.956E-13
  -1.230 -0.119E-12 -0.119E-12
  -1.220 -0.111E-12 -0.111E-12
  -1.210 -0.761E-13 -0.761E-13
  -1.200 -0.211E-13 -0.211E-13
  -1.190  0.502E-13  0.502E-13
  -1.180  0.136E-12  0.136E-12
  -1.170  0.234E-12  0.234E-12
  -1.160  0.346E-12  0.346E-12
  -1.150  0.471E-12  0.471E-12
  -1.140  0.605E-12  0.605E-12
  -1.130  0.747E-12  0.747E-12
  -1.120  0.890E-12  0.890E-12
  -1.110  0.103E-11  0.103E-11
  -1.100  0.116E-11  0.116E-11
  -1.090  0.128E-11  0.128E-11
  -1.080  0.139E-11  0.139E-11
  -1.070  0.147E-11  0.147E-11
  -1.060  0.154E-11  0.154E-11
  -1.050  0.156E-11  0.156E-11
  -1.040  0.155E-11  0.155E-11
  -1.030  0.150E-11  0.150E-11
  -1.020  0.139E-11  0.139E-11
  -1.010  0.124E-11  0.124E-11
  -1.000  0.105E-11  0.105E-11
  -0.990  0.857E-12  0.857E-12
  -0.980  0.677E-12  0.677E-12
  -0.970  0.533E-12  0.533E-12
  -0.960  0.439E-12  0.439E-12
  -0.950  0.400E-12  0.400E-12
  -0.940  0.408E-12  0.408E-12
  -0.930  0.447E-12  0.447E-12
  -0.920  0.496E-12  0.496E-12
  -0.910  0.539E-12  0.539E-12
  -0.900  0.567E-12  0.567E-12
  -0.890  0.583E-12  0.583E-12
  -0.880  0.604E-12  0.604E-12
  -0.870  0.663E-12  0.663E-12
  -0.860  0.801E-12  0.801E-12
  -0.850  0.106E-11  0.106E-11
  -0.840  0.150E-11  0.150E-11
  -0.830  0.213E-11  0.213E-11
  -0.820  0.299E-11  0.299E-11
  -0.810  0.406E-11  0.406E-11
  -0.800  0.530E-11  0.530E-11
  -0.790  0.662E-11  0.662E-11
  -0.780  0.791E-11  0.791E-11
  -0.770  0.905E-11  0.905E-11
  -0.760  0.990E-11  0.990E-11
  -0.750  0.103E-10  0.103E-10
  -0.740  0.103E-10  0.103E-10
  -0.730  0.987E-11  0.987E-11
  -0.720  0.899E-11  0.899E-11
  -0.710  0.784E-11  0.784E-11
  -0.700  0.656E-11  0.656E-11
  -0.690  0.531E-11  0.531E-11
  -0.680  0.425E-11  0.425E-11
  -0.670  0.348E-11  0.348E-11
  -0.660  0.305E-11  0.305E-11
  -0.650  0.295E-11  0.295E-11
  -0.640  0.313E-11  0.313E-11
  -0.630  0.348E-11  0.348E-11
  -0.620  0.390E-11  0.390E-11
  -0.610  0.425E-11  0.425E-11
  -0.600  0.445E-11  0.445E-11
  -0.590  0.441E-11  0.441E-11
  -0.580  0.412E-11  0.412E-11
  -0.570  0.361E-11  0.361E-11
  -0.560  0.297E-11  0.297E-11
  -0.550  0.230E-11  0.230E-11
  -0.540  0.170E-11  0.170E-11
  -0.530  0.127E-11  0.127E-11
  -0.520  0.106E-11  0.106E-11
  -0.510  0.110E-11  0.110E-11
  -0.500  0.137E-11  0.137E-11
  -0.490  0.180E-11  0.180E-11
  -0.480  0.232E-11  0.232E-11
  -0.470  0.286E-11  0.286E-11
  -0.460  0.334E-11  0.334E-11
  -0.450  0.370E-11  0.370E-11
  -0.440  0.389E-11  0.389E-11
  -0.430  0.391E-11  0.391E-11
  -0.420  0.375E-11  0.375E-11
  -0.410  0.346E-11  0.346E-11
  -0.400  0.307E-11  0.307E-11
  -0.390  0.265E-11  0.265E-11
  -0.380  0.225E-11  0.225E-11
  -0.370  0.191E-11  0.191E-11
  -0.360  0.168E-11  0.168E-11
  -0.350  0.160E-11  0.160E-11
  -0.340  0.172E-11  0.172E-11
  -0.330  0.208E-11  0.208E-11
  -0.320  0.273E-11  0.273E-11
  -0.310  0.371E-11  0.371E-11
  -0.300  0.504E-11  0.504E-11
  -0.290  0.670E-11  0.670E-11
  -0.280  0.862E-11  0.862E-11
  -0.270  0.107E-10  0.107E-10
  -0.260  0.127E-10  0.127E-10
  -0.250  0.146E-10  0.146E-10
  -0.240  0.160E-10  0.160E-10
  -0.230  0.169E-10  0.169E-10
  -0.220  0.174E-10  0.174E-10
  -0.210  0.174E-10  0.174E-10
  -0.200  0.173E-10  0.173E-10
  -0.190  0.171E-10  0.171E-10
  -0.180  0.170E-10  0.170E-10
  -0.170  0.173E-10  0.173E-10
  -0.160  0.179E-10  0.179E-10
  -0.150  0.188E-10  0.188E-10
  -0.140  0.197E-10  0.197E-10
  -0.130  0.205E-10  0.205E-10
  -0.120  0.210E-10  0.210E-10
  -0.110  0.210E-10  0.210E-10
  -0.100  0.205E-10  0.205E-10
  -0.090  0.196E-10  0.196E-10
  -0.080  0.181E-10  0.181E-10
  -0.070  0.163E-10  0.163E-10
  -0.060  0.143E-10  0.143E-10
  -0.050  0.122E-10  0.122E-10
  -0.040  0.102E-10  0.102E-10
  -0.030  0.826E-11  0.826E-11
  -0.020  0.659E-11  0.659E-11
  -0.010  0.521E-11  0.521E-11
  -0.000  0.416E-11  0.416E-11
   0.010  0.345E-11  0.345E-11
   0.020  0.306E-11  0.306E-11
   0.030  0.298E-11  0.298E-11
   0.040  0.321E-11  0.321E-11
   0.050  0.375E-11  0.375E-11
   0.060  0.461E-11  0.461E-11
   0.070  0.583E-11  0.583E-11
   0.080  0.744E-11  0.744E-11
   0.090  0.944E-11  0.944E-11
   0.100  0.118E-10  0.118E-10
   0.110  0.144E-10  0.144E-10
   0.120  0.172E-10  0.172E-10
   0.130  0.197E-10  0.197E-10
   0.140  0.219E-10  0.219E-10
   0.150  0.234E-10  0.234E-10
   0.160  0.242E-10  0.242E-10
   0.170  0.243E-10  0.243E-10
   0.180  0.238E-10  0.238E-10
   0.190  0.233E-10  0.233E-10
   0.200  0.235E-10  0.235E-10
   0.210  0.251E-10  0.251E-10
   0.220  0.290E-10  0.290E-10
   0.230  0.358E-10  0.358E-10
   0.240  0.456E-10  0.456E-10
   0.250  0.584E-10  0.584E-10
   0.260  0.734E-10  0.734E-10
   0.270  0.890E-10  0.890E-10
   0.280  0.103E-09  0.103E-09
   0.290  0.115E-09  0.115E-09
   0.300  0.121E-09  0.121E-09
   0.310  0.120E-09  0.120E-09
   0.320  0.113E-09  0.113E-09
   0.330  0.100E-09  0.100E-09
   0.340  0.824E-10  0.824E-10
   0.350  0.624E-10  0.624E-10
   0.360  0.424E-10  0.424E-10
   0.370  0.247E-10  0.247E-10
   0.380  0.106E-10  0.106E-10
   0.390  0.927E-12  0.927E-12
   0.400 -0.439E-11 -0.439E-11
   0.410 -0.600E-11 -0.600E-11
   0.420 -0.484E-11 -0.484E-11
   0.430 -0.189E-11 -0.189E-11
   0.440  0.196E-11  0.196E-11
   0.450  0.604E-11  0.604E-11
   0.460  0.987E-11  0.987E-11
   0.470  0.132E-10  0.132E-10
   0.480  0.157E-10  0.157E-10
   0.490  0.175E-10  0.175E-10
   0.500  0.185E-10  0.185E-10
   0.510  0.188E-10  0.188E-10
   0.520  0.185E-10  0.185E-10
   0.530  0.179E-10  0.179E-10
   0.540  0.171E-10  0.171E-10
   0.550  0.163E-10  0.163E-10
   0.560  0.157E-10  0.157E-10
   0.570  0.154E-10  0.154E-10
   0.580  0.153E-10  0.153E-10
   0.590  0.154E-10  0.154E-10
   0.600  0.156E-10  0.156E-10
   0.610  0.157E-10  0.157E-10
   0.620  0.156E-10  0.156E-10
   0.630  0.151E-10  0.151E-10
   0.640  0.142E-10  0.142E-10
   0.650  0.129E-10  0.129E-10
   0.660  0.112E-10  0.112E-10
   0.670  0.932E-11  0.932E-11
   0.680  0.741E-11  0.741E-11
   0.690  0.572E-11  0.572E-11
   0.700  0.446E-11  0.446E-11
   0.710  0.378E-11  0.378E-11
   0.720  0.381E-11  0.381E-11
   0.730  0.458E-11  0.458E-11
   0.740  0.604E-11  0.604E-11
   0.750  0.809E-11  0.809E-11
   0.760  0.105E-10  0.105E-10
   0.770  0.132E-10  0.132E-10
   0.780  0.159E-10  0.159E-10
   0.790  0.184E-10  0.184E-10
   0.800  0.209E-10  0.209E-10
   0.810  0.233E-10  0.233E-10
   0.820  0.261E-10  0.261E-10
   0.830  0.293E-10  0.293E-10
   0.840  0.333E-10  0.333E-10
   0.850  0.380E-10  0.380E-10
   0.860  0.434E-10  0.434E-10
   0.870  0.493E-10  0.493E-10
   0.880  0.574E-10  0.574E-10
   0.890  0.738E-10  0.738E-10
   0.900  0.120E-09  0.120E-09
   0.910  0.260E-09  0.260E-09
   0.920  0.675E-09  0.675E-09
   0.930  0.185E-08  0.185E-08
   0.940  0.499E-08  0.499E-08
   0.950  0.131E-07  0.131E-07
   0.960  0.329E-07  0.329E-07
   0.970  0.794E-07  0.794E-07
   0.980  0.184E-06  0.184E-06
   0.990  0.407E-06  0.407E-06
   1.000  0.864E-06  0.864E-06
   1.010  0.176E-05  0.176E-05
   1.020  0.343E-05  0.343E-05
   1.030  0.642E-05  0.642E-05
   1.040  0.115E-04  0.115E-04
   1.050  0.198E-04  0.198E-04
   1.060  0.326E-04  0.326E-04
   1.070  0.516E-04  0.516E-04
   1.080  0.784E-04  0.784E-04
   1.090  0.114E-03  0.114E-03
   1.100  0.160E-03  0.160E-03
   1.110  0.215E-03  0.215E-03
   1.120  0.278E-03  0.278E-03
   1.130  0.346E-03  0.346E-03
   1.140  0.415E-03  0.415E-03
   1.150  0.480E-03  0.480E-03
   1.160  0.537E-03  0.537E-03
   1.170  0.581E-03  0.581E-03
   1.180  0.609E-03  0.609E-03
   1.190  0.622E-03  0.622E-03
   1.200  0.620E-03  0.620E-03
   1.210  0.605E-03  0.605E-03
   1.220  0.581E-03  0.581E-03
   1.230  0.551E-03  0.551E-03
   1.240  0.519E-03  0.519E-03
   1.250  0.488E-03  0.488E-03
   1.260  0.458E-03  0.458E-03
   1.270  0.431E-03  0.431E-03
   1.280  0.408E-03  0.408E-03
   1.290  0.387E-03  0.387E-03
   1.300  0.368E-03  0.368E-03
   1.310  0.349E-03  0.349E-03
   1.320  0.332E-03  0.332E-03
   1.330  0.315E-03  0.315E-03
   1.340  0.299E-03  0.299E-03
   1.350  0.284E-03  0.284E-03
   1.360  0.273E-03  0.273E-03
   1.370  0.263E-03  0.263E-03
   1.380  0.254E-03  0.254E-03
   1.390  0.245E-03  0.245E-03
   1.400  0.235E-03  0.235E-03
   1.410  0.223E-03  0.223E-03
   1.420  0.209E-03  0.209E-03
   1.430  0.194E-03  0.194E-03
   1.440  0.180E-03  0.180E-03
   1.450  0.168E-03  0.168E-03
   1.460  0.160E-03  0.160E-03
   1.470  0.155E-03  0.155E-03
   1.480  0.152E-03  0.152E-03
   1.490  0.151E-03  0.151E-03
   1.500  0.148E-03  0.148E-03
   1.510  0.142E-03  0.142E-03
   1.520  0.134E-03  0.134E-03
   1.530  0.123E-03  0.123E-03
   1.540  0.111E-03  0.111E-03
   1.550  0.985E-04  0.985E-04
   1.560  0.877E-04  0.877E-04
   1.570  0.797E-04  0.797E-04
   1.580  0.749E-04  0.749E-04
   1.590  0.732E-04  0.732E-04
   1.600  0.736E-04  0.736E-04
   1.610  0.748E-04  0.748E-04
   1.620  0.754E-04  0.754E-04
   1.630  0.745E-04  0.745E-04
   1.640  0.712E-04  0.712E-04
   1.650  0.658E-04  0.658E-04
   1.660  0.587E-04  0.587E-04
   1.670  0.507E-04  0.507E-04
   1.680  0.428E-04  0.428E-04
   1.690  0.358E-04  0.358E-04
   1.700  0.304E-04  0.304E-04
   1.710  0.267E-04  0.267E-04
   1.720  0.247E-04  0.247E-04
   1.730  0.242E-04  0.242E-04
   1.740  0.246E-04  0.246E-04
   1.750  0.255E-04  0.255E-04
   1.760  0.262E-04  0.262E-04
   1.770  0.264E-04  0.264E-04
   1.780  0.257E-04  0.257E-04
   1.790  0.240E-04  0.240E-04
   1.800  0.215E-04  0.215E-04
   1.810  0.183E-04  0.183E-04
   1.820  0.149E-04  0.149E-04
   1.830  0.116E-04  0.116E-04
   1.840  0.866E-05  0.866E-05
   1.850  0.638E-05  0.638E-05
   1.860  0.477E-05  0.477E-05
   1.870  0.379E-05  0.379E-05
   1.880  0.328E-05  0.328E-05
   1.890  0.310E-05  0.310E-05
   1.900  0.309E-05  0.309E-05
   1.910  0.312E-05  0.312E-05
   1.920  0.312E-05  0.312E-05
   1.930  0.304E-05  0.304E-05
   1.940  0.288E-05  0.288E-05
   1.950  0.263E-05  0.263E-05
   1.960  0.231E-05  0.231E-05
   1.970  0.195E-05  0.195E-05
   1.980  0.158E-05  0.158E-05
   1.990  0.122E-05  0.122E-05
   2.000  0.899E-06  0.899E-06
   2.010  0.651E-06  0.651E-06
   2.020  0.491E-06  0.491E-06
   2.030  0.428E-06  0.428E-06
   2.040  0.461E-06  0.461E-06
   2.050  0.581E-06  0.581E-06
   2.060  0.774E-06  0.774E-06
   2.070  0.102E-05  0.102E-05
   2.080  0.130E-05  0.130E-05
   2.090  0.161E-05  0.161E-05
   2.100  0.191E-05  0.191E-05
   2.110  0.222E-05  0.222E-05
   2.120  0.251E-05  0.251E-05
   2.130  0.278E-05  0.278E-05
   2.140  0.304E-05  0.304E-05
   2.150  0.328E-05  0.328E-05
   2.160  0.349E-05  0.349E-05
   2.170  0.368E-05  0.368E-05
   2.180  0.386E-05  0.386E-05
   2.190  0.403E-05  0.403E-05
   2.200  0.422E-05  0.422E-05
   2.210  0.449E-05  0.449E-05
   2.220  0.490E-05  0.490E-05
   2.230  0.552E-05  0.552E-05
   2.240  0.642E-05  0.642E-05
   2.250  0.765E-05  0.765E-05
   2.260  0.921E-05  0.921E-05
   2.270  0.110E-04  0.110E-04
   2.280  0.130E-04  0.130E-04
   2.290  0.149E-04  0.149E-04
   2.300  0.165E-04  0.165E-04
   2.310  0.178E-04  0.178E-04
   2.320  0.184E-04  0.184E-04
   2.330  0.185E-04  0.185E-04
   2.340  0.180E-04  0.180E-04
   2.350  0.172E-04  0.172E-04
   2.360  0.162E-04  0.162E-04
   2.370  0.153E-04  0.153E-04
   2.380  0.145E-04  0.145E-04
   2.390  0.140E-04  0.140E-04
   2.400  0.138E-04  0.138E-04
   2.410  0.138E-04  0.138E-04
   2.420  0.141E-04  0.141E-04
   2.430  0.147E-04  0.147E-04
   2.440  0.154E-04  0.154E-04
   2.450  0.164E-04  0.164E-04
   2.460  0.178E-04  0.178E-04
   2.470  0.197E-04  0.197E-04
   2.480  0.221E-04  0.221E-04
   2.490  0.250E-04  0.250E-04
   2.500  0.285E-04  0.285E-04
   2.510  0.322E-04  0.322E-04
   2.520  0.360E-04  0.360E-04
   2.530  0.392E-04  0.392E-04
   2.540  0.416E-04  0.416E-04
   2.550  0.427E-04  0.427E-04
   2.560  0.424E-04  0.424E-04
   2.570  0.406E-04  0.406E-04
   2.580  0.377E-04  0.377E-04
   2.590  0.341E-04  0.341E-04
   2.600  0.303E-04  0.303E-04
   2.610  0.268E-04  0.268E-04
   2.620  0.239E-04  0.239E-04
   2.630  0.218E-04  0.218E-04
   2.640  0.208E-04  0.208E-04
   2.650  0.206E-04  0.206E-04
   2.660  0.213E-04  0.213E-04
   2.670  0.228E-04  0.228E-04
   2.680  0.250E-04  0.250E-04
   2.690  0.278E-04  0.278E-04
   2.700  0.311E-04  0.311E-04
   2.710  0.350E-04  0.350E-04
   2.720  0.392E-04  0.392E-04
   2.730  0.435E-04  0.435E-04
   2.740  0.477E-04  0.477E-04
   2.750  0.515E-04  0.515E-04
   2.760  0.546E-04  0.546E-04
   2.770  0.570E-04  0.570E-04
   2.780  0.584E-04  0.584E-04
   2.790  0.590E-04  0.590E-04
   2.800  0.586E-04  0.586E-04
   2.810  0.574E-04  0.574E-04
   2.820  0.554E-04  0.554E-04
   2.830  0.527E-04  0.527E-04
   2.840  0.494E-04  0.494E-04
   2.850  0.458E-04  0.458E-04
   2.860  0.422E-04  0.422E-04
   2.870  0.389E-04  0.389E-04
   2.880  0.367E-04  0.367E-04
   2.890  0.361E-04  0.361E-04
   2.900  0.376E-04  0.376E-04
   2.910  0.415E-04  0.415E-04
   2.920  0.481E-04  0.481E-04
   2.930  0.575E-04  0.575E-04
   2.940  0.695E-04  0.695E-04
   2.950  0.837E-04  0.837E-04
   2.960  0.996E-04  0.996E-04
   2.970  0.116E-03  0.116E-03
   2.980  0.133E-03  0.133E-03
   2.990  0.149E-03  0.149E-03
   3.000  0.162E-03  0.162E-03
   3.010  0.172E-03  0.172E-03
   3.020  0.177E-03  0.177E-03
   3.030  0.179E-03  0.179E-03
   3.040  0.176E-03  0.176E-03
   3.050  0.169E-03  0.169E-03
   3.060  0.160E-03  0.160E-03
   3.070  0.150E-03  0.150E-03
   3.080  0.140E-03  0.140E-03
   3.090  0.131E-03  0.131E-03
   3.100  0.124E-03  0.124E-03
   3.110  0.119E-03  0.119E-03
   3.120  0.115E-03  0.115E-03
   3.130  0.112E-03  0.112E-03
   3.140  0.108E-03  0.108E-03
   3.150  0.105E-03  0.105E-03
   3.160  0.100E-03  0.100E-03
   3.170  0.957E-04  0.957E-04
   3.180  0.913E-04  0.913E-04
   3.190  0.877E-04  0.877E-04
   3.200  0.850E-04  0.850E-04
   3.210  0.836E-04  0.836E-04
   3.220  0.834E-04  0.834E-04
   3.230  0.843E-04  0.843E-04
   3.240  0.862E-04  0.862E-04
   3.250  0.892E-04  0.892E-04
   3.260  0.935E-04  0.935E-04
   3.270  0.993E-04  0.993E-04
   3.280  0.106E-03  0.106E-03
   3.290  0.114E-03  0.114E-03
   3.300  0.121E-03  0.121E-03
   3.310  0.127E-03  0.127E-03
   3.320  0.130E-03  0.130E-03
   3.330  0.129E-03  0.129E-03
   3.340  0.124E-03  0.124E-03
   3.350  0.116E-03  0.116E-03
   3.360  0.105E-03  0.105E-03
   3.370  0.924E-04  0.924E-04
   3.380  0.804E-04  0.804E-04
   3.390  0.702E-04  0.702E-04
   3.400  0.629E-04  0.629E-04
   3.410  0.589E-04  0.589E-04
   3.420  0.581E-04  0.581E-04
   3.430  0.597E-04  0.597E-04
   3.440  0.627E-04  0.627E-04
   3.450  0.659E-04  0.659E-04
   3.460  0.680E-04  0.680E-04
   3.470  0.683E-04  0.683E-04
   3.480  0.667E-04  0.667E-04
   3.490  0.635E-04  0.635E-04
   3.500  0.595E-04  0.595E-04
   3.510  0.557E-04  0.557E-04
   3.520  0.531E-04  0.531E-04
   3.530  0.525E-04  0.525E-04
   3.540  0.543E-04  0.543E-04
   3.550  0.586E-04  0.586E-04
   3.560  0.647E-04  0.647E-04
   3.570  0.721E-04  0.721E-04
   3.580  0.798E-04  0.798E-04
   3.590  0.869E-04  0.869E-04
   3.600  0.925E-04  0.925E-04
   3.610  0.961E-04  0.961E-04
   3.620  0.973E-04  0.973E-04
   3.630  0.961E-04  0.961E-04
   3.640  0.927E-04  0.927E-04
   3.650  0.876E-04  0.876E-04
   3.660  0.813E-04  0.813E-04
   3.670  0.744E-04  0.744E-04
   3.680  0.673E-04  0.673E-04
   3.690  0.604E-04  0.604E-04
   3.700  0.539E-04  0.539E-04
   3.710  0.480E-04  0.480E-04
   3.720  0.430E-04  0.430E-04
   3.730  0.391E-04  0.391E-04
   3.740  0.365E-04  0.365E-04
   3.750  0.353E-04  0.353E-04
   3.760  0.356E-04  0.356E-04
   3.770  0.371E-04  0.371E-04
   3.780  0.395E-04  0.395E-04
   3.790  0.423E-04  0.423E-04
   3.800  0.449E-04  0.449E-04
   3.810  0.468E-04  0.468E-04
   3.820  0.479E-04  0.479E-04
   3.830  0.481E-04  0.481E-04
   3.840  0.480E-04  0.480E-04
   3.850  0.480E-04  0.480E-04
   3.860  0.486E-04  0.486E-04
   3.870  0.504E-04  0.504E-04
   3.880  0.534E-04  0.534E-04
   3.890  0.575E-04  0.575E-04
   3.900  0.620E-04  0.620E-04
   3.910  0.662E-04  0.662E-04
   3.920  0.694E-04  0.694E-04
   3.930  0.709E-04  0.709E-04
   3.940  0.706E-04  0.706E-04
   3.950  0.686E-04  0.686E-04
   3.960  0.655E-04  0.655E-04
   3.970  0.619E-04  0.619E-04
   3.980  0.585E-04  0.585E-04
   3.990  0.558E-04  0.558E-04
   4.000  0.539E-04  0.539E-04
   4.010  0.528E-04  0.528E-04
   4.020  0.519E-04  0.519E-04
   4.030  0.510E-04  0.510E-04
   4.040  0.494E-04  0.494E-04
   4.050  0.468E-04  0.468E-04
   4.060  0.433E-04  0.433E-04
   4.070  0.388E-04  0.388E-04
   4.080  0.339E-04  0.339E-04
   4.090  0.292E-04  0.292E-04
   4.100  0.253E-04  0.253E-04
   4.110  0.229E-04  0.229E-04
   4.120  0.224E-04  0.224E-04
   4.130  0.239E-04  0.239E-04
   4.140  0.272E-04  0.272E-04
   4.150  0.321E-04  0.321E-04
   4.160  0.378E-04  0.378E-04
   4.170  0.440E-04  0.440E-04
   4.180  0.499E-04  0.499E-04
   4.190  0.553E-04  0.553E-04
   4.200  0.599E-04  0.599E-04
   4.210  0.634E-04  0.634E-04
   4.220  0.658E-04  0.658E-04
   4.230  0.672E-04  0.672E-04
   4.240  0.675E-04  0.675E-04
   4.250  0.668E-04  0.668E-04
   4.260  0.651E-04  0.651E-04
   4.270  0.624E-04  0.624E-04
   4.280  0.590E-04  0.590E-04
   4.290  0.548E-04  0.548E-04
   4.300  0.503E-04  0.503E-04
   4.310  0.458E-04  0.458E-04
   4.320  0.417E-04  0.417E-04
   4.330  0.388E-04  0.388E-04
   4.340  0.375E-04  0.375E-04
   4.350  0.384E-04  0.384E-04
   4.360  0.415E-04  0.415E-04
   4.370  0.467E-04  0.467E-04
   4.380  0.535E-04  0.535E-04
   4.390  0.611E-04  0.611E-04
   4.400  0.683E-04  0.683E-04
   4.410  0.742E-04  0.742E-04
   4.420  0.777E-04  0.777E-04
   4.430  0.781E-04  0.781E-04
   4.440  0.753E-04  0.753E-04
   4.450  0.694E-04  0.694E-04
   4.460  0.613E-04  0.613E-04
   4.470  0.519E-04  0.519E-04
   4.480  0.425E-04  0.425E-04
   4.490  0.346E-04  0.346E-04
   4.500  0.292E-04  0.292E-04
   4.510  0.270E-04  0.270E-04
   4.520  0.285E-04  0.285E-04
   4.530  0.336E-04  0.336E-04
   4.540  0.418E-04  0.418E-04
   4.550  0.527E-04  0.527E-04
   4.560  0.652E-04  0.652E-04
   4.570  0.785E-04  0.785E-04
   4.580  0.914E-04  0.914E-04
   4.590  0.103E-03  0.103E-03
   4.600  0.112E-03  0.112E-03
   4.610  0.118E-03  0.118E-03
   4.620  0.120E-03  0.120E-03
   4.630  0.119E-03  0.119E-03
   4.640  0.114E-03  0.114E-03
   4.650  0.108E-03  0.108E-03
   4.660  0.999E-04  0.999E-04
   4.670  0.919E-04  0.919E-04
   4.680  0.844E-04  0.844E-04
   4.690  0.775E-04  0.775E-04
   4.700  0.713E-04  0.713E-04
   4.710  0.657E-04  0.657E-04
   4.720  0.609E-04  0.609E-04
   4.730  0.574E-04  0.574E-04
   4.740  0.560E-04  0.560E-04
   4.750  0.580E-04  0.580E-04
   4.760  0.644E-04  0.644E-04
   4.770  0.760E-04  0.760E-04
   4.780  0.929E-04  0.929E-04
   4.790  0.114E-03  0.114E-03
   4.800  0.139E-03  0.139E-03
   4.810  0.164E-03  0.164E-03
   4.820  0.186E-03  0.186E-03
   4.830  0.204E-03  0.204E-03
   4.840  0.214E-03  0.214E-03
   4.850  0.215E-03  0.215E-03
   4.860  0.206E-03  0.206E-03
   4.870  0.189E-03  0.189E-03
   4.880  0.164E-03  0.164E-03
   4.890  0.135E-03  0.135E-03
   4.900  0.107E-03  0.107E-03
   4.910  0.822E-04  0.822E-04
   4.920  0.645E-04  0.645E-04
   4.930  0.561E-04  0.561E-04
   4.940  0.580E-04  0.580E-04
   4.950  0.706E-04  0.706E-04
   4.960  0.929E-04  0.929E-04
   4.970  0.124E-03  0.124E-03
   4.980  0.161E-03  0.161E-03
   4.990  0.202E-03  0.202E-03
   5.000  0.245E-03  0.245E-03
   5.010  0.287E-03  0.287E-03
   5.020  0.323E-03  0.323E-03
   5.030  0.351E-03  0.351E-03
   5.040  0.367E-03  0.367E-03
   5.050  0.371E-03  0.371E-03
   5.060  0.361E-03  0.361E-03
   5.070  0.340E-03  0.340E-03
   5.080  0.312E-03  0.312E-03
   5.090  0.280E-03  0.280E-03
   5.100  0.248E-03  0.248E-03
   5.110  0.221E-03  0.221E-03
   5.120  0.199E-03  0.199E-03
   5.130  0.183E-03  0.183E-03
   5.140  0.174E-03  0.174E-03
   5.150  0.170E-03  0.170E-03
   5.160  0.172E-03  0.172E-03
   5.170  0.182E-03  0.182E-03
   5.180  0.202E-03  0.202E-03
   5.190  0.236E-03  0.236E-03
   5.200  0.284E-03  0.284E-03
   5.210  0.349E-03  0.349E-03
   5.220  0.428E-03  0.428E-03
   5.230  0.517E-03  0.517E-03
   5.240  0.608E-03  0.608E-03
   5.250  0.695E-03  0.695E-03
   5.260  0.766E-03  0.766E-03
   5.270  0.814E-03  0.814E-03
   5.280  0.831E-03  0.831E-03
   5.290  0.814E-03  0.814E-03
   5.300  0.765E-03  0.765E-03
   5.310  0.689E-03  0.689E-03
   5.320  0.594E-03  0.594E-03
   5.330  0.491E-03  0.491E-03
   5.340  0.393E-03  0.393E-03
   5.350  0.311E-03  0.311E-03
   5.360  0.255E-03  0.255E-03
   5.370  0.233E-03  0.233E-03
   5.380  0.249E-03  0.249E-03
   5.390  0.307E-03  0.307E-03
   5.400  0.410E-03  0.410E-03
   5.410  0.557E-03  0.557E-03
   5.420  0.748E-03  0.748E-03
   5.430  0.976E-03  0.976E-03
   5.440  0.123E-02  0.123E-02
   5.450  0.150E-02  0.150E-02
   5.460  0.175E-02  0.175E-02
   5.470  0.198E-02  0.198E-02
   5.480  0.214E-02  0.214E-02
   5.490  0.224E-02  0.224E-02
   5.500  0.230E-02  0.230E-02
   5.510  0.235E-02  0.235E-02
   5.520  0.249E-02  0.249E-02
   5.530  0.287E-02  0.287E-02
   5.540  0.368E-02  0.368E-02
   5.550  0.519E-02  0.519E-02
   5.560  0.775E-02  0.775E-02
   5.570  0.118E-01  0.118E-01
   5.580  0.177E-01  0.177E-01
   5.590  0.260E-01  0.260E-01
   5.600  0.371E-01  0.371E-01
   5.610  0.511E-01  0.511E-01
   5.620  0.682E-01  0.682E-01
   5.630  0.879E-01  0.879E-01
   5.640  0.110E+00  0.110E+00
   5.650  0.132E+00  0.132E+00
   5.660  0.154E+00  0.154E+00
   5.670  0.175E+00  0.175E+00
   5.680  0.191E+00  0.191E+00
   5.690  0.203E+00  0.203E+00
   5.700  0.210E+00  0.210E+00
   5.710  0.212E+00  0.212E+00
   5.720  0.209E+00  0.209E+00
   5.730  0.202E+00  0.202E+00
   5.740  0.192E+00  0.192E+00
   5.750  0.182E+00  0.182E+00
   5.760  0.173E+00  0.173E+00
   5.770  0.165E+00  0.165E+00
   5.780  0.159E+00  0.159E+00
   5.790  0.156E+00  0.156E+00
   5.800  0.155E+00  0.155E+00
   5.810  0.155E+00  0.155E+00
   5.820  0.155E+00  0.155E+00
   5.830  0.156E+00  0.156E+00
   5.840  0.157E+00  0.157E+00
   5.850  0.157E+00  0.157E+00
   5.860  0.157E+00  0.157E+00
   5.870  0.156E+00  0.156E+00
   5.880  0.154E+00  0.154E+00
   5.890  0.151E+00  0.151E+00
   5.900  0.148E+00  0.148E+00
   5.910  0.143E+00  0.143E+00
   5.920  0.138E+00  0.138E+00
   5.930  0.133E+00  0.133E+00
   5.940  0.129E+00  0.129E+00
   5.950  0.127E+00  0.127E+00
   5.960  0.130E+00  0.130E+00
   5.970  0.138E+00  0.138E+00
   5.980  0.151E+00  0.151E+00
   5.990  0.169E+00  0.169E+00
   6.000  0.191E+00  0.191E+00
   6.010  0.213E+00  0.213E+00
   6.020  0.234E+00  0.234E+00
   6.030  0.250E+00  0.250E+00
   6.040  0.258E+00  0.258E+00
   6.050  0.258E+00  0.258E+00
   6.060  0.248E+00  0.248E+00
   6.070  0.231E+00  0.231E+00
   6.080  0.209E+00  0.209E+00
   6.090  0.183E+00  0.183E+00
   6.100  0.158E+00  0.158E+00
   6.110  0.136E+00  0.136E+00
   6.120  0.117E+00  0.117E+00
   6.130  0.104E+00  0.104E+00
   6.140  0.962E-01  0.962E-01
   6.150  0.929E-01  0.929E-01
   6.160  0.936E-01  0.936E-01
   6.170  0.973E-01  0.973E-01
   6.180  0.103E+00  0.103E+00
   6.190  0.110E+00  0.110E+00
   6.200  0.119E+00  0.119E+00
   6.210  0.128E+00  0.128E+00
   6.220  0.139E+00  0.139E+00
   6.230  0.151E+00  0.151E+00
   6.240  0.165E+00  0.165E+00
   6.250  0.180E+00  0.180E+00
   6.260  0.198E+00  0.198E+00
   6.270  0.216E+00  0.216E+00
   6.280  0.233E+00  0.233E+00
   6.290  0.249E+00  0.249E+00
   6.300  0.261E+00  0.261E+00
   6.310  0.268E+00  0.268E+00
   6.320  0.269E+00  0.269E+00
   6.330  0.264E+00  0.264E+00
   6.340  0.252E+00  0.252E+00
   6.350  0.235E+00  0.235E+00
   6.360  0.213E+00  0.213E+00
   6.370  0.189E+00  0.189E+00
   6.380  0.165E+00  0.165E+00
   6.390  0.143E+00  0.143E+00
   6.400  0.126E+00  0.126E+00
   6.410  0.114E+00  0.114E+00
   6.420  0.108E+00  0.108E+00
   6.430  0.109E+00  0.109E+00
   6.440  0.116E+00  0.116E+00
   6.450  0.126E+00  0.126E+00
   6.460  0.139E+00  0.139E+00
   6.470  0.152E+00  0.152E+00
   6.480  0.165E+00  0.165E+00
   6.490  0.174E+00  0.174E+00
   6.500  0.180E+00  0.180E+00
   6.510  0.182E+00  0.182E+00
   6.520  0.179E+00  0.179E+00
   6.530  0.173E+00  0.173E+00
   6.540  0.165E+00  0.165E+00
   6.550  0.156E+00  0.156E+00
   6.560  0.149E+00  0.149E+00
   6.570  0.144E+00  0.144E+00
   6.580  0.143E+00  0.143E+00
   6.590  0.146E+00  0.146E+00
   6.600  0.153E+00  0.153E+00
   6.610  0.164E+00  0.164E+00
   6.620  0.178E+00  0.178E+00
   6.630  0.192E+00  0.192E+00
   6.640  0.206E+00  0.206E+00
   6.650  0.219E+00  0.219E+00
   6.660  0.229E+00  0.229E+00
   6.670  0.234E+00  0.234E+00
   6.680  0.235E+00  0.235E+00
   6.690  0.230E+00  0.230E+00
   6.700  0.220E+00  0.220E+00
   6.710  0.207E+00  0.207E+00
   6.720  0.191E+00  0.191E+00
   6.730  0.175E+00  0.175E+00
   6.740  0.160E+00  0.160E+00
   6.750  0.147E+00  0.147E+00
   6.760  0.138E+00  0.138E+00
   6.770  0.132E+00  0.132E+00
   6.780  0.129E+00  0.129E+00
   6.790  0.129E+00  0.129E+00
   6.800  0.130E+00  0.130E+00
   6.810  0.131E+00  0.131E+00
   6.820  0.132E+00  0.132E+00
   6.830  0.132E+00  0.132E+00
   6.840  0.131E+00  0.131E+00
   6.850  0.128E+00  0.128E+00
   6.860  0.125E+00  0.125E+00
   6.870  0.120E+00  0.120E+00
   6.880  0.116E+00  0.116E+00
   6.890  0.113E+00  0.113E+00
   6.900  0.109E+00  0.109E+00
   6.910  0.107E+00  0.107E+00
   6.920  0.105E+00  0.105E+00
   6.930  0.103E+00  0.103E+00
   6.940  0.101E+00  0.101E+00
   6.950  0.994E-01  0.994E-01
   6.960  0.985E-01  0.985E-01
   6.970  0.986E-01  0.986E-01
   6.980  0.100E+00  0.100E+00
   6.990  0.104E+00  0.104E+00
   7.000  0.110E+00  0.110E+00
   7.010  0.118E+00  0.118E+00
   7.020  0.128E+00  0.128E+00
   7.030  0.138E+00  0.138E+00
   7.040  0.148E+00  0.148E+00
   7.050  0.156E+00  0.156E+00
   7.060  0.160E+00  0.160E+00
   7.070  0.159E+00  0.159E+00
   7.080  0.154E+00  0.154E+00
   7.090  0.143E+00  0.143E+00
   7.100  0.130E+00  0.130E+00
   7.110  0.114E+00  0.114E+00
   7.120  0.996E-01  0.996E-01
   7.130  0.875E-01  0.875E-01
   7.140  0.797E-01  0.797E-01
   7.150  0.771E-01  0.771E-01
   7.160  0.796E-01  0.796E-01
   7.170  0.864E-01  0.864E-01
   7.180  0.959E-01  0.959E-01
   7.190  0.106E+00  0.106E+00
   7.200  0.115E+00  0.115E+00
   7.210  0.121E+00  0.121E+00
   7.220  0.124E+00  0.124E+00
   7.230  0.122E+00  0.122E+00
   7.240  0.115E+00  0.115E+00
   7.250  0.105E+00  0.105E+00
   7.260  0.926E-01  0.926E-01
   7.270  0.786E-01  0.786E-01
   7.280  0.645E-01  0.645E-01
   7.290  0.513E-01  0.513E-01
   7.300  0.399E-01  0.399E-01
   7.310  0.311E-01  0.311E-01
   7.320  0.253E-01  0.253E-01
   7.330  0.224E-01  0.224E-01
   7.340  0.224E-01  0.224E-01
   7.350  0.248E-01  0.248E-01
   7.360  0.290E-01  0.290E-01
   7.370  0.344E-01  0.344E-01
   7.380  0.404E-01  0.404E-01
   7.390  0.463E-01  0.463E-01
   7.400  0.521E-01  0.521E-01
   7.410  0.577E-01  0.577E-01
   7.420  0.632E-01  0.632E-01
   7.430  0.691E-01  0.691E-01
   7.440  0.757E-01  0.757E-01
   7.450  0.834E-01  0.834E-01
   7.460  0.925E-01  0.925E-01
   7.470  0.103E+00  0.103E+00
   7.480  0.114E+00  0.114E+00
   7.490  0.125E+00  0.125E+00
   7.500  0.135E+00  0.135E+00
   7.510  0.142E+00  0.142E+00
   7.520  0.146E+00  0.146E+00
   7.530  0.144E+00  0.144E+00
   7.540  0.139E+00  0.139E+00
   7.550  0.129E+00  0.129E+00
   7.560  0.118E+00  0.118E+00
   7.570  0.105E+00  0.105E+00
   7.580  0.931E-01  0.931E-01
   7.590  0.835E-01  0.835E-01
   7.600  0.766E-01  0.766E-01
   7.610  0.725E-01  0.725E-01
   7.620  0.706E-01  0.706E-01
   7.630  0.701E-01  0.701E-01
   7.640  0.698E-01  0.698E-01
   7.650  0.691E-01  0.691E-01
   7.660  0.673E-01  0.673E-01
   7.670  0.643E-01  0.643E-01
   7.680  0.602E-01  0.602E-01
   7.690  0.554E-01  0.554E-01
   7.700  0.502E-01  0.502E-01
   7.710  0.450E-01  0.450E-01
   7.720  0.403E-01  0.403E-01
   7.730  0.364E-01  0.364E-01
   7.740  0.336E-01  0.336E-01
   7.750  0.321E-01  0.321E-01
   7.760  0.319E-01  0.319E-01
   7.770  0.332E-01  0.332E-01
   7.780  0.355E-01  0.355E-01
   7.790  0.386E-01  0.386E-01
   7.800  0.422E-01  0.422E-01
   7.810  0.460E-01  0.460E-01
   7.820  0.496E-01  0.496E-01
   7.830  0.529E-01  0.529E-01
   7.840  0.559E-01  0.559E-01
   7.850  0.587E-01  0.587E-01
   7.860  0.612E-01  0.612E-01
   7.870  0.635E-01  0.635E-01
   7.880  0.657E-01  0.657E-01
   7.890  0.677E-01  0.677E-01
   7.900  0.694E-01  0.694E-01
   7.910  0.711E-01  0.711E-01
   7.920  0.727E-01  0.727E-01
   7.930  0.744E-01  0.744E-01
   7.940  0.763E-01  0.763E-01
   7.950  0.786E-01  0.786E-01
   7.960  0.812E-01  0.812E-01
   7.970  0.839E-01  0.839E-01
   7.980  0.863E-01  0.863E-01
   7.990  0.880E-01  0.880E-01
   8.000  0.883E-01  0.883E-01
   8.010  0.869E-01  0.869E-01
   8.020  0.840E-01  0.840E-01
   8.030  0.799E-01  0.799E-01
   8.040  0.754E-01  0.754E-01
   8.050  0.715E-01  0.715E-01
   8.060  0.688E-01  0.688E-01
   8.070  0.678E-01  0.678E-01
   8.080  0.682E-01  0.682E-01
   8.090  0.697E-01  0.697E-01
   8.100  0.713E-01  0.713E-01
   8.110  0.722E-01  0.722E-01
   8.120  0.718E-01  0.718E-01
   8.130  0.697E-01  0.697E-01
   8.140  0.661E-01  0.661E-01
   8.150  0.613E-01  0.613E-01
   8.160  0.559E-01  0.559E-01
   8.170  0.505E-01  0.505E-01
   8.180  0.459E-01  0.459E-01
   8.190  0.424E-01  0.424E-01
   8.200  0.403E-01  0.403E-01
   8.210  0.398E-01  0.398E-01
   8.220  0.407E-01  0.407E-01
   8.230  0.427E-01  0.427E-01
   8.240  0.457E-01  0.457E-01
   8.250  0.491E-01  0.491E-01
   8.260  0.527E-01  0.527E-01
   8.270  0.564E-01  0.564E-01
   8.280  0.600E-01  0.600E-01
   8.290  0.632E-01  0.632E-01
   8.300  0.660E-01  0.660E-01
   8.310  0.681E-01  0.681E-01
   8.320  0.689E-01  0.689E-01
   8.330  0.681E-01  0.681E-01
   8.340  0.654E-01  0.654E-01
   8.350  0.605E-01  0.605E-01
   8.360  0.535E-01  0.535E-01
   8.370  0.448E-01  0.448E-01
   8.380  0.353E-01  0.353E-01
   8.390  0.258E-01  0.258E-01
   8.400  0.173E-01  0.173E-01
   8.410  0.108E-01  0.108E-01
   8.420  0.687E-02  0.687E-02
   8.430  0.605E-02  0.605E-02
   8.440  0.843E-02  0.843E-02
   8.450  0.139E-01  0.139E-01
   8.460  0.219E-01  0.219E-01
   8.470  0.319E-01  0.319E-01
   8.480  0.430E-01  0.430E-01
   8.490  0.543E-01  0.543E-01
   8.500  0.647E-01  0.647E-01
   8.510  0.735E-01  0.735E-01
   8.520  0.801E-01  0.801E-01
   8.530  0.843E-01  0.843E-01
   8.540  0.863E-01  0.863E-01
   8.550  0.866E-01  0.866E-01
   8.560  0.859E-01  0.859E-01
   8.570  0.849E-01  0.849E-01
   8.580  0.837E-01  0.837E-01
   8.590  0.825E-01  0.825E-01
   8.600  0.809E-01  0.809E-01
   8.610  0.784E-01  0.784E-01
   8.620  0.747E-01  0.747E-01
   8.630  0.697E-01  0.697E-01
   8.640  0.635E-01  0.635E-01
   8.650  0.567E-01  0.567E-01
   8.660  0.501E-01  0.501E-01
   8.670  0.445E-01  0.445E-01
   8.680  0.410E-01  0.410E-01
   8.690  0.399E-01  0.399E-01
   8.700  0.415E-01  0.415E-01
   8.710  0.455E-01  0.455E-01
   8.720  0.511E-01  0.511E-01
   8.730  0.576E-01  0.576E-01
   8.740  0.640E-01  0.640E-01
   8.750  0.693E-01  0.693E-01
   8.760  0.730E-01  0.730E-01
   8.770  0.746E-01  0.746E-01
   8.780  0.738E-01  0.738E-01
   8.790  0.707E-01  0.707E-01
   8.800  0.655E-01  0.655E-01
   8.810  0.583E-01  0.583E-01
   8.820  0.495E-01  0.495E-01
   8.830  0.398E-01  0.398E-01
   8.840  0.298E-01  0.298E-01
   8.850  0.201E-01  0.201E-01
   8.860  0.115E-01  0.115E-01
   8.870  0.445E-02  0.445E-02
   8.880 -0.767E-03 -0.767E-03
   8.890 -0.408E-02 -0.408E-02
   8.900 -0.565E-02 -0.565E-02
   8.910 -0.578E-02 -0.578E-02
   8.920 -0.479E-02 -0.479E-02
   8.930 -0.295E-02 -0.295E-02
   8.940 -0.406E-03 -0.406E-03
   8.950  0.282E-02  0.282E-02
   8.960  0.683E-02  0.683E-02
   8.970  0.118E-01  0.118E-01
   8.980  0.178E-01  0.178E-01
   8.990  0.250E-01  0.250E-01
   9.000  0.332E-01  0.332E-01
   9.010  0.420E-01  0.420E-01
   9.020  0.512E-01  0.512E-01
   9.030  0.601E-01  0.601E-01
   9.040  0.682E-01  0.682E-01
   9.050  0.752E-01  0.752E-01
   9.060  0.808E-01  0.808E-01
   9.070  0.850E-01  0.850E-01
   9.080  0.877E-01  0.877E-01
   9.090  0.890E-01  0.890E-01
   9.100  0.889E-01  0.889E-01
   9.110  0.871E-01  0.871E-01
   9.120  0.837E-01  0.837E-01
   9.130  0.784E-01  0.784E-01
   9.140  0.716E-01  0.716E-01
   9.150  0.639E-01  0.639E-01
   9.160  0.560E-01  0.560E-01
   9.170  0.491E-01  0.491E-01
   9.180  0.441E-01  0.441E-01
   9.190  0.420E-01  0.420E-01
   9.200  0.430E-01  0.430E-01
   9.210  0.470E-01  0.470E-01
   9.220  0.531E-01  0.531E-01
   9.230  0.603E-01  0.603E-01
   9.240  0.671E-01  0.671E-01
   9.250  0.724E-01  0.724E-01
   9.260  0.750E-01  0.750E-01
   9.270  0.745E-01  0.745E-01
   9.280  0.707E-01  0.707E-01
   9.290  0.639E-01  0.639E-01
   9.300  0.550E-01  0.550E-01
   9.310  0.447E-01  0.447E-01
   9.320  0.339E-01  0.339E-01
   9.330  0.235E-01  0.235E-01
   9.340  0.142E-01  0.142E-01
   9.350  0.657E-02  0.657E-02
   9.360  0.761E-03  0.761E-03
   9.370 -0.316E-02 -0.316E-02
   9.380 -0.535E-02 -0.535E-02
   9.390 -0.612E-02 -0.612E-02
   9.400 -0.584E-02 -0.584E-02
   9.410 -0.490E-02 -0.490E-02
   9.420 -0.362E-02 -0.362E-02
   9.430 -0.222E-02 -0.222E-02
   9.440 -0.816E-03 -0.816E-03
   9.450  0.586E-03  0.586E-03
   9.460  0.208E-02  0.208E-02
   9.470  0.384E-02  0.384E-02
   9.480  0.605E-02  0.605E-02
   9.490  0.893E-02  0.893E-02
   9.500  0.126E-01  0.126E-01
   9.510  0.173E-01  0.173E-01
   9.520  0.228E-01  0.228E-01
   9.530  0.292E-01  0.292E-01
   9.540  0.362E-01  0.362E-01
   9.550  0.436E-01  0.436E-01
   9.560  0.512E-01  0.512E-01
   9.570  0.585E-01  0.585E-01
   9.580  0.655E-01  0.655E-01
   9.590  0.717E-01  0.717E-01
   9.600  0.769E-01  0.769E-01
   9.610  0.808E-01  0.808E-01
   9.620  0.830E-01  0.830E-01
   9.630  0.830E-01  0.830E-01
   9.640  0.809E-01  0.809E-01
   9.650  0.766E-01  0.766E-01
   9.660  0.705E-01  0.705E-01
   9.670  0.634E-01  0.634E-01
   9.680  0.563E-01  0.563E-01
   9.690  0.502E-01  0.502E-01
   9.700  0.462E-01  0.462E-01
   9.710  0.448E-01  0.448E-01
   9.720  0.463E-01  0.463E-01
   9.730  0.503E-01  0.503E-01
   9.740  0.558E-01  0.558E-01
   9.750  0.616E-01  0.616E-01
   9.760  0.663E-01  0.663E-01
   9.770  0.686E-01  0.686E-01
   9.780  0.678E-01  0.678E-01
   9.790  0.635E-01  0.635E-01
   9.800  0.560E-01  0.560E-01
   9.810  0.460E-01  0.460E-01
   9.820  0.348E-01  0.348E-01
   9.830  0.234E-01  0.234E-01
   9.840  0.131E-01  0.131E-01
   9.850  0.463E-02  0.463E-02
   9.860 -0.160E-02 -0.160E-02
   9.870 -0.554E-02 -0.554E-02
   9.880 -0.745E-02 -0.745E-02
   9.890 -0.778E-02 -0.778E-02
   9.900 -0.702E-02 -0.702E-02
   9.910 -0.566E-02 -0.566E-02
   9.920 -0.404E-02 -0.404E-02
   9.930 -0.239E-02 -0.239E-02
   9.940 -0.801E-03 -0.801E-03
   9.950  0.740E-03  0.740E-03
   9.960  0.232E-02  0.232E-02
   9.970  0.404E-02  0.404E-02
   9.980  0.605E-02  0.605E-02
   9.990  0.844E-02  0.844E-02
  10.000  0.113E-01  0.113E-01
  10.010  0.145E-01  0.145E-01
  10.020  0.183E-01  0.183E-01
  10.030  0.224E-01  0.224E-01
  10.040  0.268E-01  0.268E-01
  10.050  0.315E-01  0.315E-01
  10.060  0.366E-01  0.366E-01
  10.070  0.421E-01  0.421E-01
  10.080  0.479E-01  0.479E-01
  10.090  0.541E-01  0.541E-01
  10.100  0.603E-01  0.603E-01
  10.110  0.662E-01  0.662E-01
  10.120  0.712E-01  0.712E-01
  10.130  0.747E-01  0.747E-01
  10.140  0.762E-01  0.762E-01
  10.150  0.753E-01  0.753E-01
  10.160  0.721E-01  0.721E-01
  10.170  0.668E-01  0.668E-01
  10.180  0.603E-01  0.603E-01
  10.190  0.534E-01  0.534E-01
  10.200  0.472E-01  0.472E-01
  10.210  0.425E-01  0.425E-01
  10.220  0.399E-01  0.399E-01
  10.230  0.394E-01  0.394E-01
  10.240  0.406E-01  0.406E-01
  10.250  0.428E-01  0.428E-01
  10.260  0.450E-01  0.450E-01
  10.270  0.462E-01  0.462E-01
  10.280  0.457E-01  0.457E-01
  10.290  0.431E-01  0.431E-01
  10.300  0.385E-01  0.385E-01
  10.310  0.323E-01  0.323E-01
  10.320  0.252E-01  0.252E-01
  10.330  0.180E-01  0.180E-01
  10.340  0.115E-01  0.115E-01
  10.350  0.622E-02  0.622E-02
  10.360  0.247E-02  0.247E-02
  10.370  0.318E-03  0.318E-03
  10.380 -0.343E-03 -0.343E-03
  10.390  0.256E-03  0.256E-03
  10.400  0.186E-02  0.186E-02
  10.410  0.423E-02  0.423E-02
  10.420  0.717E-02  0.717E-02
  10.430  0.105E-01  0.105E-01
  10.440  0.142E-01  0.142E-01
  10.450  0.179E-01  0.179E-01
  10.460  0.215E-01  0.215E-01
  10.470  0.247E-01  0.247E-01
  10.480  0.273E-01  0.273E-01
  10.490  0.292E-01  0.292E-01
  10.500  0.303E-01  0.303E-01
  10.510  0.308E-01  0.308E-01
  10.520  0.312E-01  0.312E-01
  10.530  0.318E-01  0.318E-01
  10.540  0.331E-01  0.331E-01
  10.550  0.355E-01  0.355E-01
  10.560  0.389E-01  0.389E-01
  10.570  0.431E-01  0.431E-01
  10.580  0.474E-01  0.474E-01
  10.590  0.511E-01  0.511E-01
  10.600  0.534E-01  0.534E-01
  10.610  0.538E-01  0.538E-01
  10.620  0.522E-01  0.522E-01
  10.630  0.487E-01  0.487E-01
  10.640  0.441E-01  0.441E-01
  10.650  0.392E-01  0.392E-01
  10.660  0.350E-01  0.350E-01
  10.670  0.323E-01  0.323E-01
  10.680  0.314E-01  0.314E-01
  10.690  0.325E-01  0.325E-01
  10.700  0.350E-01  0.350E-01
  10.710  0.381E-01  0.381E-01
  10.720  0.412E-01  0.412E-01
  10.730  0.433E-01  0.433E-01
  10.740  0.439E-01  0.439E-01
  10.750  0.429E-01  0.429E-01
  10.760  0.405E-01  0.405E-01
  10.770  0.371E-01  0.371E-01
  10.780  0.333E-01  0.333E-01
  10.790  0.299E-01  0.299E-01
  10.800  0.274E-01  0.274E-01
  10.810  0.259E-01  0.259E-01
  10.820  0.257E-01  0.257E-01
  10.830  0.264E-01  0.264E-01
  10.840  0.278E-01  0.278E-01
  10.850  0.293E-01  0.293E-01
  10.860  0.306E-01  0.306E-01
  10.870  0.314E-01  0.314E-01
  10.880  0.318E-01  0.318E-01
  10.890  0.317E-01  0.317E-01
  10.900  0.315E-01  0.315E-01
  10.910  0.314E-01  0.314E-01
  10.920  0.318E-01  0.318E-01
  10.930  0.327E-01  0.327E-01
  10.940  0.343E-01  0.343E-01
  10.950  0.364E-01  0.364E-01
  10.960  0.389E-01  0.389E-01
  10.970  0.416E-01  0.416E-01
  10.980  0.442E-01  0.442E-01
  10.990  0.466E-01  0.466E-01
  11.000  0.485E-01  0.485E-01
  11.010  0.498E-01  0.498E-01
  11.020  0.504E-01  0.504E-01
  11.030  0.503E-01  0.503E-01
  11.040  0.493E-01  0.493E-01
  11.050  0.475E-01  0.475E-01
  11.060  0.450E-01  0.450E-01
  11.070  0.419E-01  0.419E-01
  11.080  0.383E-01  0.383E-01
  11.090  0.347E-01  0.347E-01
  11.100  0.311E-01  0.311E-01
  11.110  0.277E-01  0.277E-01
  11.120  0.248E-01  0.248E-01
  11.130  0.223E-01  0.223E-01
  11.140  0.202E-01  0.202E-01
  11.150  0.183E-01  0.183E-01
  11.160  0.164E-01  0.164E-01
  11.170  0.145E-01  0.145E-01
  11.180  0.125E-01  0.125E-01
  11.190  0.102E-01  0.102E-01
  11.200  0.782E-02  0.782E-02
  11.210  0.548E-02  0.548E-02
  11.220  0.339E-02  0.339E-02
  11.230  0.175E-02  0.175E-02
  11.240  0.745E-03  0.745E-03
  11.250  0.487E-03  0.487E-03
  11.260  0.102E-02  0.102E-02
  11.270  0.229E-02  0.229E-02
  11.280  0.421E-02  0.421E-02
  11.290  0.660E-02  0.660E-02
  11.300  0.926E-02  0.926E-02
  11.310  0.120E-01  0.120E-01
  11.320  0.144E-01  0.144E-01
  11.330  0.165E-01  0.165E-01
  11.340  0.180E-01  0.180E-01
  11.350  0.189E-01  0.189E-01
  11.360  0.191E-01  0.191E-01
  11.370  0.187E-01  0.187E-01
  11.380  0.179E-01  0.179E-01
  11.390  0.167E-01  0.167E-01
  11.400  0.152E-01  0.152E-01
  11.410  0.135E-01  0.135E-01
  11.420  0.116E-01  0.116E-01
  11.430  0.958E-02  0.958E-02
  11.440  0.744E-02  0.744E-02
  11.450  0.531E-02  0.531E-02
  11.460  0.331E-02  0.331E-02
  11.470  0.156E-02  0.156E-02
  11.480  0.170E-03  0.170E-03
  11.490 -0.820E-03 -0.820E-03
  11.500 -0.141E-02 -0.141E-02
  11.510 -0.166E-02 -0.166E-02
  11.520 -0.164E-02 -0.164E-02
  11.530 -0.145E-02 -0.145E-02
  11.540 -0.119E-02 -0.119E-02
  11.550 -0.900E-03 -0.900E-03
  11.560 -0.643E-03 -0.643E-03
  11.570 -0.433E-03 -0.433E-03
  11.580 -0.277E-03 -0.277E-03
  11.590 -0.168E-03 -0.168E-03
  11.600 -0.969E-04 -0.969E-04
  11.610 -0.533E-04 -0.533E-04
  11.620 -0.280E-04 -0.280E-04
  11.630 -0.140E-04 -0.140E-04
  11.640 -0.670E-05 -0.670E-05
  11.650 -0.306E-05 -0.306E-05
  11.660 -0.132E-05 -0.132E-05
  11.670 -0.533E-06 -0.533E-06
  11.680 -0.183E-06 -0.183E-06
  11.690 -0.278E-07 -0.278E-07
  11.700  0.471E-07  0.471E-07
  11.710  0.907E-07  0.907E-07
  11.720  0.123E-06  0.123E-06
  11.730  0.152E-06  0.152E-06
  11.740  0.180E-06  0.180E-06
  11.750  0.206E-06  0.206E-06
  11.760  0.231E-06  0.231E-06
  11.770  0.253E-06  0.253E-06
  11.780  0.269E-06  0.269E-06
  11.790  0.279E-06  0.279E-06
  11.800  0.280E-06  0.280E-06
  11.810  0.269E-06  0.269E-06
  11.820  0.247E-06  0.247E-06
  11.830  0.214E-06  0.214E-06
  11.840  0.173E-06  0.173E-06
  11.850  0.128E-06  0.128E-06
  11.860  0.830E-07  0.830E-07
  11.870  0.426E-07  0.426E-07
  11.880  0.999E-08  0.999E-08
  11.890 -0.133E-07 -0.133E-07
  11.900 -0.271E-07 -0.271E-07
  11.910 -0.330E-07 -0.330E-07
  11.920 -0.328E-07 -0.328E-07
  11.930 -0.288E-07 -0.288E-07
  11.940 -0.231E-07 -0.231E-07
  11.950 -0.170E-07 -0.170E-07
  11.960 -0.115E-07 -0.115E-07
  11.970 -0.684E-08 -0.684E-08
  11.980 -0.309E-08 -0.309E-08
  11.990 -0.890E-11 -0.890E-11
  12.000  0.266E-08  0.266E-08
  12.010  0.514E-08  0.514E-08
  12.020  0.756E-08  0.756E-08
  12.030  0.991E-08  0.991E-08
  12.040  0.121E-07  0.121E-07
  12.050  0.139E-07  0.139E-07
  12.060  0.150E-07  0.150E-07
  12.070  0.154E-07  0.154E-07
  12.080  0.148E-07  0.148E-07
  12.090  0.135E-07  0.135E-07
  12.100  0.116E-07  0.116E-07
  12.110  0.965E-08  0.965E-08
  12.120  0.809E-08  0.809E-08
  12.130  0.768E-08  0.768E-08
  12.140  0.921E-08  0.921E-08
  12.150  0.136E-07  0.136E-07
  12.160  0.217E-07  0.217E-07
  12.170  0.345E-07  0.345E-07
  12.180  0.528E-07  0.528E-07
  12.190  0.770E-07  0.770E-07
  12.200  0.107E-06  0.107E-06
  12.210  0.141E-06  0.141E-06
  12.220  0.178E-06  0.178E-06
  12.230  0.214E-06  0.214E-06
  12.240  0.246E-06  0.246E-06
  12.250  0.270E-06  0.270E-06
  12.260  0.283E-06  0.283E-06
  12.270  0.284E-06  0.284E-06
  12.280  0.271E-06  0.271E-06
  12.290  0.245E-06  0.245E-06
  12.300  0.211E-06  0.211E-06
  12.310  0.170E-06  0.170E-06
  12.320  0.127E-06  0.127E-06
  12.330  0.863E-07  0.863E-07
  12.340  0.499E-07  0.499E-07
  12.350  0.201E-07  0.201E-07
  12.360 -0.200E-08 -0.200E-08
  12.370 -0.166E-07 -0.166E-07
  12.380 -0.245E-07 -0.245E-07
  12.390 -0.270E-07 -0.270E-07
  12.400 -0.258E-07 -0.258E-07
  12.410 -0.223E-07 -0.223E-07
  12.420 -0.179E-07 -0.179E-07
  12.430 -0.135E-07 -0.135E-07
  12.440 -0.952E-08 -0.952E-08
  12.450 -0.637E-08 -0.637E-08
  12.460 -0.404E-08 -0.404E-08
  12.470 -0.244E-08 -0.244E-08
  12.480 -0.139E-08 -0.139E-08
  12.490 -0.733E-09 -0.733E-09
  12.500 -0.329E-09 -0.329E-09
  12.510 -0.557E-10 -0.557E-10
  12.520  0.180E-09  0.180E-09
  12.530  0.460E-09  0.460E-09
  12.540  0.861E-09  0.861E-09
  12.550  0.146E-08  0.146E-08
  12.560  0.234E-08  0.234E-08
  12.570  0.356E-08  0.356E-08
  12.580  0.517E-08  0.517E-08
  12.590  0.715E-08  0.715E-08
  12.600  0.942E-08  0.942E-08
  12.610  0.118E-07  0.118E-07
  12.620  0.141E-07  0.141E-07
  12.630  0.159E-07  0.159E-07
  12.640  0.170E-07  0.170E-07
  12.650  0.172E-07  0.172E-07
  12.660  0.164E-07  0.164E-07
  12.670  0.145E-07  0.145E-07
  12.680  0.120E-07  0.120E-07
  12.690  0.896E-08  0.896E-08
  12.700  0.589E-08  0.589E-08
  12.710  0.310E-08  0.310E-08
  12.720  0.842E-09  0.842E-09
  12.730 -0.767E-09 -0.767E-09
  12.740 -0.172E-08 -0.172E-08
  12.750 -0.212E-08 -0.212E-08
  12.760 -0.211E-08 -0.211E-08
  12.770 -0.185E-08 -0.185E-08
  12.780 -0.147E-08 -0.147E-08
  12.790 -0.109E-08 -0.109E-08
  12.800 -0.753E-09 -0.753E-09
  12.810 -0.490E-09 -0.490E-09
  12.820 -0.301E-09 -0.301E-09
  12.830 -0.175E-09 -0.175E-09
  12.840 -0.967E-10 -0.967E-10
