# E (eV)   ldos(E)   pdos(E)   
 -20.358  0.336E-07  0.336E-07
 -20.348  0.983E-07  0.983E-07
 -20.338  0.276E-06  0.276E-06
 -20.328  0.741E-06  0.741E-06
 -20.318  0.191E-05  0.191E-05
 -20.308  0.471E-05  0.471E-05
 -20.298  0.112E-04  0.112E-04
 -20.288  0.253E-04  0.253E-04
 -20.278  0.549E-04  0.549E-04
 -20.268  0.114E-03  0.114E-03
 -20.258  0.228E-03  0.228E-03
 -20.248  0.437E-03  0.437E-03
 -20.238  0.803E-03  0.803E-03
 -20.228  0.141E-02  0.141E-02
 -20.218  0.239E-02  0.239E-02
 -20.208  0.388E-02  0.388E-02
 -20.198  0.603E-02  0.603E-02
 -20.188  0.902E-02  0.902E-02
 -20.178  0.130E-01  0.130E-01
 -20.168  0.179E-01  0.179E-01
 -20.158  0.238E-01  0.238E-01
 -20.148  0.305E-01  0.305E-01
 -20.138  0.376E-01  0.376E-01
 -20.128  0.449E-01  0.449E-01
 -20.118  0.517E-01  0.517E-01
 -20.108  0.579E-01  0.579E-01
 -20.098  0.629E-01  0.629E-01
 -20.088  0.667E-01  0.667E-01
 -20.078  0.693E-01  0.693E-01
 -20.068  0.708E-01  0.708E-01
 -20.058  0.716E-01  0.716E-01
 -20.048  0.721E-01  0.721E-01
 -20.038  0.727E-01  0.727E-01
 -20.028  0.739E-01  0.739E-01
 -20.018  0.761E-01  0.761E-01
 -20.008  0.795E-01  0.795E-01
 -19.998  0.844E-01  0.844E-01
 -19.988  0.907E-01  0.907E-01
 -19.978  0.982E-01  0.982E-01
 -19.968  0.107E+00  0.107E+00
 -19.958  0.115E+00  0.115E+00
 -19.948  0.124E+00  0.124E+00
 -19.938  0.132E+00  0.132E+00
 -19.928  0.139E+00  0.139E+00
 -19.918  0.144E+00  0.144E+00
 -19.908  0.147E+00  0.147E+00
 -19.898  0.149E+00  0.149E+00
 -19.888  0.150E+00  0.150E+00
 -19.878  0.149E+00  0.149E+00
 -19.868  0.148E+00  0.148E+00
 -19.858  0.146E+00  0.146E+00
 -19.848  0.145E+00  0.145E+00
 -19.838  0.143E+00  0.143E+00
 -19.828  0.142E+00  0.142E+00
 -19.818  0.141E+00  0.141E+00
 -19.808  0.140E+00  0.140E+00
 -19.798  0.139E+00  0.139E+00
 -19.788  0.138E+00  0.138E+00
 -19.778  0.138E+00  0.138E+00
 -19.768  0.137E+00  0.137E+00
 -19.758  0.137E+00  0.137E+00
 -19.748  0.137E+00  0.137E+00
 -19.738  0.136E+00  0.136E+00
 -19.728  0.136E+00  0.136E+00
 -19.718  0.136E+00  0.136E+00
 -19.708  0.135E+00  0.135E+00
 -19.698  0.134E+00  0.134E+00
 -19.688  0.134E+00  0.134E+00
 -19.678  0.133E+00  0.133E+00
 -19.668  0.133E+00  0.133E+00
 -19.658  0.133E+00  0.133E+00
 -19.648  0.133E+00  0.133E+00
 -19.638  0.133E+00  0.133E+00
 -19.628  0.133E+00  0.133E+00
 -19.618  0.132E+00  0.132E+00
 -19.608  0.132E+00  0.132E+00
 -19.598  0.130E+00  0.130E+00
 -19.588  0.129E+00  0.129E+00
 -19.578  0.129E+00  0.129E+00
 -19.568  0.129E+00  0.129E+00
 -19.558  0.129E+00  0.129E+00
 -19.548  0.130E+00  0.130E+00
 -19.538  0.130E+00  0.130E+00
 -19.528  0.130E+00  0.130E+00
 -19.518  0.130E+00  0.130E+00
 -19.508  0.129E+00  0.129E+00
 -19.498  0.127E+00  0.127E+00
 -19.488  0.126E+00  0.126E+00
 -19.478  0.126E+00  0.126E+00
 -19.468  0.125E+00  0.125E+00
 -19.458  0.125E+00  0.125E+00
 -19.448  0.126E+00  0.126E+00
 -19.438  0.126E+00  0.126E+00
 -19.428  0.126E+00  0.126E+00
 -19.418  0.126E+00  0.126E+00
 -19.408  0.126E+00  0.126E+00
 -19.398  0.126E+00  0.126E+00
 -19.388  0.125E+00  0.125E+00
 -19.378  0.124E+00  0.124E+00
 -19.368  0.124E+00  0.124E+00
 -19.358  0.123E+00  0.123E+00
 -19.348  0.122E+00  0.122E+00
 -19.338  0.121E+00  0.121E+00
 -19.328  0.121E+00  0.121E+00
 -19.318  0.121E+00  0.121E+00
 -19.308  0.121E+00  0.121E+00
 -19.298  0.122E+00  0.122E+00
 -19.288  0.123E+00  0.123E+00
 -19.278  0.124E+00  0.124E+00
 -19.268  0.125E+00  0.125E+00
 -19.258  0.124E+00  0.124E+00
 -19.248  0.123E+00  0.123E+00
 -19.238  0.121E+00  0.121E+00
 -19.228  0.119E+00  0.119E+00
 -19.218  0.116E+00  0.116E+00
 -19.208  0.115E+00  0.115E+00
 -19.198  0.114E+00  0.114E+00
 -19.188  0.115E+00  0.115E+00
 -19.178  0.116E+00  0.116E+00
 -19.168  0.119E+00  0.119E+00
 -19.158  0.122E+00  0.122E+00
 -19.148  0.124E+00  0.124E+00
 -19.138  0.125E+00  0.125E+00
 -19.128  0.125E+00  0.125E+00
 -19.118  0.123E+00  0.123E+00
 -19.108  0.119E+00  0.119E+00
 -19.098  0.115E+00  0.115E+00
 -19.088  0.111E+00  0.111E+00
 -19.078  0.108E+00  0.108E+00
 -19.068  0.107E+00  0.107E+00
 -19.058  0.107E+00  0.107E+00
 -19.048  0.110E+00  0.110E+00
 -19.038  0.114E+00  0.114E+00
 -19.028  0.118E+00  0.118E+00
 -19.018  0.123E+00  0.123E+00
 -19.008  0.126E+00  0.126E+00
 -18.998  0.127E+00  0.127E+00
 -18.988  0.125E+00  0.125E+00
 -18.978  0.122E+00  0.122E+00
 -18.968  0.117E+00  0.117E+00
 -18.958  0.111E+00  0.111E+00
 -18.948  0.106E+00  0.106E+00
 -18.938  0.102E+00  0.102E+00
 -18.928  0.100E+00  0.100E+00
 -18.918  0.101E+00  0.101E+00
 -18.908  0.103E+00  0.103E+00
 -18.898  0.108E+00  0.108E+00
 -18.888  0.114E+00  0.114E+00
 -18.878  0.120E+00  0.120E+00
 -18.868  0.125E+00  0.125E+00
 -18.858  0.127E+00  0.127E+00
 -18.848  0.128E+00  0.128E+00
 -18.838  0.125E+00  0.125E+00
 -18.828  0.120E+00  0.120E+00
 -18.818  0.113E+00  0.113E+00
 -18.808  0.106E+00  0.106E+00
 -18.798  0.100E+00  0.100E+00
 -18.788  0.956E-01  0.956E-01
 -18.778  0.938E-01  0.938E-01
 -18.768  0.948E-01  0.948E-01
 -18.758  0.983E-01  0.983E-01
 -18.748  0.104E+00  0.104E+00
 -18.738  0.110E+00  0.110E+00
 -18.728  0.117E+00  0.117E+00
 -18.718  0.122E+00  0.122E+00
 -18.708  0.126E+00  0.126E+00
 -18.698  0.127E+00  0.127E+00
 -18.688  0.126E+00  0.126E+00
 -18.678  0.122E+00  0.122E+00
 -18.668  0.116E+00  0.116E+00
 -18.658  0.109E+00  0.109E+00
 -18.648  0.101E+00  0.101E+00
 -18.638  0.951E-01  0.951E-01
 -18.628  0.907E-01  0.907E-01
 -18.618  0.889E-01  0.889E-01
 -18.608  0.899E-01  0.899E-01
 -18.598  0.936E-01  0.936E-01
 -18.588  0.995E-01  0.995E-01
 -18.578  0.107E+00  0.107E+00
 -18.568  0.114E+00  0.114E+00
 -18.558  0.120E+00  0.120E+00
 -18.548  0.125E+00  0.125E+00
 -18.538  0.127E+00  0.127E+00
 -18.528  0.126E+00  0.126E+00
 -18.518  0.122E+00  0.122E+00
 -18.508  0.117E+00  0.117E+00
 -18.498  0.110E+00  0.110E+00
 -18.488  0.103E+00  0.103E+00
 -18.478  0.959E-01  0.959E-01
 -18.468  0.905E-01  0.905E-01
 -18.458  0.871E-01  0.871E-01
 -18.448  0.861E-01  0.861E-01
 -18.438  0.874E-01  0.874E-01
 -18.428  0.911E-01  0.911E-01
 -18.418  0.966E-01  0.966E-01
 -18.408  0.103E+00  0.103E+00
 -18.398  0.110E+00  0.110E+00
 -18.388  0.117E+00  0.117E+00
 -18.378  0.122E+00  0.122E+00
 -18.368  0.124E+00  0.124E+00
 -18.358  0.124E+00  0.124E+00
 -18.348  0.122E+00  0.122E+00
 -18.338  0.117E+00  0.117E+00
 -18.328  0.111E+00  0.111E+00
 -18.318  0.104E+00  0.104E+00
 -18.308  0.968E-01  0.968E-01
 -18.298  0.908E-01  0.908E-01
 -18.288  0.864E-01  0.864E-01
 -18.278  0.839E-01  0.839E-01
 -18.268  0.837E-01  0.837E-01
 -18.258  0.857E-01  0.857E-01
 -18.248  0.898E-01  0.898E-01
 -18.238  0.953E-01  0.953E-01
 -18.228  0.102E+00  0.102E+00
 -18.218  0.108E+00  0.108E+00
 -18.208  0.114E+00  0.114E+00
 -18.198  0.119E+00  0.119E+00
 -18.188  0.121E+00  0.121E+00
 -18.178  0.121E+00  0.121E+00
 -18.168  0.119E+00  0.119E+00
 -18.158  0.115E+00  0.115E+00
 -18.148  0.110E+00  0.110E+00
 -18.138  0.104E+00  0.104E+00
 -18.128  0.975E-01  0.975E-01
 -18.118  0.919E-01  0.919E-01
 -18.108  0.874E-01  0.874E-01
 -18.098  0.844E-01  0.844E-01
 -18.088  0.830E-01  0.830E-01
 -18.078  0.833E-01  0.833E-01
 -18.068  0.853E-01  0.853E-01
 -18.058  0.889E-01  0.889E-01
 -18.048  0.939E-01  0.939E-01
 -18.038  0.997E-01  0.997E-01
 -18.028  0.106E+00  0.106E+00
 -18.018  0.112E+00  0.112E+00
 -18.008  0.116E+00  0.116E+00
 -17.998  0.119E+00  0.119E+00
 -17.988  0.119E+00  0.119E+00
 -17.978  0.117E+00  0.117E+00
 -17.968  0.114E+00  0.114E+00
 -17.958  0.108E+00  0.108E+00
 -17.948  0.102E+00  0.102E+00
 -17.938  0.961E-01  0.961E-01
 -17.928  0.906E-01  0.906E-01
 -17.918  0.862E-01  0.862E-01
 -17.908  0.834E-01  0.834E-01
 -17.898  0.823E-01  0.823E-01
 -17.888  0.829E-01  0.829E-01
 -17.878  0.848E-01  0.848E-01
 -17.868  0.878E-01  0.878E-01
 -17.858  0.915E-01  0.915E-01
 -17.848  0.956E-01  0.956E-01
 -17.838  0.997E-01  0.997E-01
 -17.828  0.104E+00  0.104E+00
 -17.818  0.107E+00  0.107E+00
 -17.808  0.110E+00  0.110E+00
 -17.798  0.113E+00  0.113E+00
 -17.788  0.114E+00  0.114E+00
 -17.778  0.114E+00  0.114E+00
 -17.768  0.112E+00  0.112E+00
 -17.758  0.108E+00  0.108E+00
 -17.748  0.103E+00  0.103E+00
 -17.738  0.978E-01  0.978E-01
 -17.728  0.919E-01  0.919E-01
 -17.718  0.865E-01  0.865E-01
 -17.708  0.823E-01  0.823E-01
 -17.698  0.797E-01  0.797E-01
 -17.688  0.791E-01  0.791E-01
 -17.678  0.806E-01  0.806E-01
 -17.668  0.839E-01  0.839E-01
 -17.658  0.886E-01  0.886E-01
 -17.648  0.939E-01  0.939E-01
 -17.638  0.990E-01  0.990E-01
 -17.628  0.103E+00  0.103E+00
 -17.618  0.106E+00  0.106E+00
 -17.608  0.108E+00  0.108E+00
 -17.598  0.108E+00  0.108E+00
 -17.588  0.107E+00  0.107E+00
 -17.578  0.106E+00  0.106E+00
 -17.568  0.105E+00  0.105E+00
 -17.558  0.104E+00  0.104E+00
 -17.548  0.102E+00  0.102E+00
 -17.538  0.100E+00  0.100E+00
 -17.528  0.975E-01  0.975E-01
 -17.518  0.943E-01  0.943E-01
 -17.508  0.906E-01  0.906E-01
 -17.498  0.867E-01  0.867E-01
 -17.488  0.833E-01  0.833E-01
 -17.478  0.808E-01  0.808E-01
 -17.468  0.797E-01  0.797E-01
 -17.458  0.803E-01  0.803E-01
 -17.448  0.827E-01  0.827E-01
 -17.438  0.867E-01  0.867E-01
 -17.428  0.918E-01  0.918E-01
 -17.418  0.973E-01  0.973E-01
 -17.408  0.102E+00  0.102E+00
 -17.398  0.107E+00  0.107E+00
 -17.388  0.109E+00  0.109E+00
 -17.378  0.109E+00  0.109E+00
 -17.368  0.108E+00  0.108E+00
 -17.358  0.106E+00  0.106E+00
 -17.348  0.102E+00  0.102E+00
 -17.338  0.984E-01  0.984E-01
 -17.328  0.950E-01  0.950E-01
 -17.318  0.922E-01  0.922E-01
 -17.308  0.901E-01  0.901E-01
 -17.298  0.886E-01  0.886E-01
 -17.288  0.875E-01  0.875E-01
 -17.278  0.867E-01  0.867E-01
 -17.268  0.861E-01  0.861E-01
 -17.258  0.857E-01  0.857E-01
 -17.248  0.855E-01  0.855E-01
 -17.238  0.857E-01  0.857E-01
 -17.228  0.864E-01  0.864E-01
 -17.218  0.875E-01  0.875E-01
 -17.208  0.892E-01  0.892E-01
 -17.198  0.914E-01  0.914E-01
 -17.188  0.939E-01  0.939E-01
 -17.178  0.967E-01  0.967E-01
 -17.168  0.995E-01  0.995E-01
 -17.158  0.102E+00  0.102E+00
 -17.148  0.104E+00  0.104E+00
 -17.138  0.105E+00  0.105E+00
 -17.128  0.105E+00  0.105E+00
 -17.118  0.104E+00  0.104E+00
 -17.108  0.101E+00  0.101E+00
 -17.098  0.970E-01  0.970E-01
 -17.088  0.925E-01  0.925E-01
 -17.078  0.879E-01  0.879E-01
 -17.068  0.839E-01  0.839E-01
 -17.058  0.810E-01  0.810E-01
 -17.048  0.795E-01  0.795E-01
 -17.038  0.796E-01  0.796E-01
 -17.028  0.811E-01  0.811E-01
 -17.018  0.839E-01  0.839E-01
 -17.008  0.874E-01  0.874E-01
 -16.998  0.910E-01  0.910E-01
 -16.988  0.941E-01  0.941E-01
 -16.978  0.964E-01  0.964E-01
 -16.968  0.975E-01  0.975E-01
 -16.958  0.974E-01  0.974E-01
 -16.948  0.964E-01  0.964E-01
 -16.938  0.949E-01  0.949E-01
 -16.928  0.935E-01  0.935E-01
 -16.918  0.927E-01  0.927E-01
 -16.908  0.929E-01  0.929E-01
 -16.898  0.940E-01  0.940E-01
 -16.888  0.958E-01  0.958E-01
 -16.878  0.976E-01  0.976E-01
 -16.868  0.988E-01  0.988E-01
 -16.858  0.987E-01  0.987E-01
 -16.848  0.971E-01  0.971E-01
 -16.838  0.938E-01  0.938E-01
 -16.828  0.894E-01  0.894E-01
 -16.818  0.846E-01  0.846E-01
 -16.808  0.802E-01  0.802E-01
 -16.798  0.771E-01  0.771E-01
 -16.788  0.760E-01  0.760E-01
 -16.778  0.770E-01  0.770E-01
 -16.768  0.802E-01  0.802E-01
 -16.758  0.850E-01  0.850E-01
 -16.748  0.906E-01  0.906E-01
 -16.738  0.960E-01  0.960E-01
 -16.728  0.100E+00  0.100E+00
 -16.718  0.103E+00  0.103E+00
 -16.708  0.103E+00  0.103E+00
 -16.698  0.102E+00  0.102E+00
 -16.688  0.983E-01  0.983E-01
 -16.678  0.943E-01  0.943E-01
 -16.668  0.904E-01  0.904E-01
 -16.658  0.874E-01  0.874E-01
 -16.648  0.858E-01  0.858E-01
 -16.638  0.858E-01  0.858E-01
 -16.628  0.871E-01  0.871E-01
 -16.618  0.891E-01  0.891E-01
 -16.608  0.913E-01  0.913E-01
 -16.598  0.928E-01  0.928E-01
 -16.588  0.933E-01  0.933E-01
 -16.578  0.925E-01  0.925E-01
 -16.568  0.906E-01  0.906E-01
 -16.558  0.879E-01  0.879E-01
 -16.548  0.850E-01  0.850E-01
 -16.538  0.826E-01  0.826E-01
 -16.528  0.811E-01  0.811E-01
 -16.518  0.810E-01  0.810E-01
 -16.508  0.824E-01  0.824E-01
 -16.498  0.850E-01  0.850E-01
 -16.488  0.886E-01  0.886E-01
 -16.478  0.924E-01  0.924E-01
 -16.468  0.959E-01  0.959E-01
 -16.458  0.986E-01  0.986E-01
 -16.448  0.100E+00  0.100E+00
 -16.438  0.100E+00  0.100E+00
 -16.428  0.986E-01  0.986E-01
 -16.418  0.961E-01  0.961E-01
 -16.408  0.930E-01  0.930E-01
 -16.398  0.899E-01  0.899E-01
 -16.388  0.871E-01  0.871E-01
 -16.378  0.850E-01  0.850E-01
 -16.368  0.837E-01  0.837E-01
 -16.358  0.833E-01  0.833E-01
 -16.348  0.835E-01  0.835E-01
 -16.338  0.841E-01  0.841E-01
 -16.328  0.851E-01  0.851E-01
 -16.318  0.862E-01  0.862E-01
 -16.308  0.873E-01  0.873E-01
 -16.298  0.884E-01  0.884E-01
 -16.288  0.895E-01  0.895E-01
 -16.278  0.905E-01  0.905E-01
 -16.268  0.913E-01  0.913E-01
 -16.258  0.918E-01  0.918E-01
 -16.248  0.919E-01  0.919E-01
 -16.238  0.917E-01  0.917E-01
 -16.228  0.911E-01  0.911E-01
 -16.218  0.902E-01  0.902E-01
 -16.208  0.894E-01  0.894E-01
 -16.198  0.888E-01  0.888E-01
 -16.188  0.887E-01  0.887E-01
 -16.178  0.891E-01  0.891E-01
 -16.168  0.901E-01  0.901E-01
 -16.158  0.914E-01  0.914E-01
 -16.148  0.926E-01  0.926E-01
 -16.138  0.935E-01  0.935E-01
 -16.128  0.935E-01  0.935E-01
 -16.118  0.926E-01  0.926E-01
 -16.108  0.909E-01  0.909E-01
 -16.098  0.885E-01  0.885E-01
 -16.088  0.858E-01  0.858E-01
 -16.078  0.832E-01  0.832E-01
 -16.068  0.811E-01  0.811E-01
 -16.058  0.799E-01  0.799E-01
 -16.048  0.798E-01  0.798E-01
 -16.038  0.810E-01  0.810E-01
 -16.028  0.835E-01  0.835E-01
 -16.018  0.870E-01  0.870E-01
 -16.008  0.911E-01  0.911E-01
 -15.998  0.952E-01  0.952E-01
 -15.988  0.987E-01  0.987E-01
 -15.978  0.101E+00  0.101E+00
 -15.968  0.101E+00  0.101E+00
 -15.958  0.100E+00  0.100E+00
 -15.948  0.970E-01  0.970E-01
 -15.938  0.926E-01  0.926E-01
 -15.928  0.879E-01  0.879E-01
 -15.918  0.835E-01  0.835E-01
 -15.908  0.805E-01  0.805E-01
 -15.898  0.793E-01  0.793E-01
 -15.888  0.802E-01  0.802E-01
 -15.878  0.829E-01  0.829E-01
 -15.868  0.868E-01  0.868E-01
 -15.858  0.909E-01  0.909E-01
 -15.848  0.942E-01  0.942E-01
 -15.838  0.961E-01  0.961E-01
 -15.828  0.962E-01  0.962E-01
 -15.818  0.944E-01  0.944E-01
 -15.808  0.912E-01  0.912E-01
 -15.798  0.874E-01  0.874E-01
 -15.788  0.839E-01  0.839E-01
 -15.778  0.812E-01  0.812E-01
 -15.768  0.802E-01  0.802E-01
 -15.758  0.808E-01  0.808E-01
 -15.748  0.832E-01  0.832E-01
 -15.738  0.869E-01  0.869E-01
 -15.728  0.915E-01  0.915E-01
 -15.718  0.961E-01  0.961E-01
 -15.708  0.100E+00  0.100E+00
 -15.698  0.103E+00  0.103E+00
 -15.688  0.104E+00  0.104E+00
 -15.678  0.103E+00  0.103E+00
 -15.668  0.100E+00  0.100E+00
 -15.658  0.960E-01  0.960E-01
 -15.648  0.909E-01  0.909E-01
 -15.638  0.856E-01  0.856E-01
 -15.628  0.811E-01  0.811E-01
 -15.618  0.781E-01  0.781E-01
 -15.608  0.771E-01  0.771E-01
 -15.598  0.783E-01  0.783E-01
 -15.588  0.814E-01  0.814E-01
 -15.578  0.858E-01  0.858E-01
 -15.568  0.906E-01  0.906E-01
 -15.558  0.948E-01  0.948E-01
 -15.548  0.975E-01  0.975E-01
 -15.538  0.983E-01  0.983E-01
 -15.528  0.973E-01  0.973E-01
 -15.518  0.948E-01  0.948E-01
 -15.508  0.917E-01  0.917E-01
 -15.498  0.889E-01  0.889E-01
 -15.488  0.871E-01  0.871E-01
 -15.478  0.867E-01  0.867E-01
 -15.468  0.880E-01  0.880E-01
 -15.458  0.905E-01  0.905E-01
 -15.448  0.938E-01  0.938E-01
 -15.438  0.972E-01  0.972E-01
 -15.428  0.100E+00  0.100E+00
 -15.418  0.102E+00  0.102E+00
 -15.408  0.103E+00  0.103E+00
 -15.398  0.102E+00  0.102E+00
 -15.388  0.100E+00  0.100E+00
 -15.378  0.977E-01  0.977E-01
 -15.368  0.945E-01  0.945E-01
 -15.358  0.910E-01  0.910E-01
 -15.348  0.877E-01  0.877E-01
 -15.338  0.849E-01  0.849E-01
 -15.328  0.831E-01  0.831E-01
 -15.318  0.827E-01  0.827E-01
 -15.308  0.837E-01  0.837E-01
 -15.298  0.862E-01  0.862E-01
 -15.288  0.897E-01  0.897E-01
 -15.278  0.937E-01  0.937E-01
 -15.268  0.974E-01  0.974E-01
 -15.258  0.100E+00  0.100E+00
 -15.248  0.102E+00  0.102E+00
 -15.238  0.102E+00  0.102E+00
 -15.228  0.101E+00  0.101E+00
 -15.218  0.992E-01  0.992E-01
 -15.208  0.978E-01  0.978E-01
 -15.198  0.973E-01  0.973E-01
 -15.188  0.978E-01  0.978E-01
 -15.178  0.995E-01  0.995E-01
 -15.168  0.102E+00  0.102E+00
 -15.158  0.105E+00  0.105E+00
 -15.148  0.107E+00  0.107E+00
 -15.138  0.108E+00  0.108E+00
 -15.128  0.109E+00  0.109E+00
 -15.118  0.108E+00  0.108E+00
 -15.108  0.106E+00  0.106E+00
 -15.098  0.103E+00  0.103E+00
 -15.088  0.100E+00  0.100E+00
 -15.078  0.978E-01  0.978E-01
 -15.068  0.957E-01  0.957E-01
 -15.058  0.945E-01  0.945E-01
 -15.048  0.944E-01  0.944E-01
 -15.038  0.956E-01  0.956E-01
 -15.028  0.980E-01  0.980E-01
 -15.018  0.102E+00  0.102E+00
 -15.008  0.106E+00  0.106E+00
 -14.998  0.110E+00  0.110E+00
 -14.988  0.113E+00  0.113E+00
 -14.978  0.116E+00  0.116E+00
 -14.968  0.118E+00  0.118E+00
 -14.958  0.119E+00  0.119E+00
 -14.948  0.119E+00  0.119E+00
 -14.938  0.120E+00  0.120E+00
 -14.928  0.123E+00  0.123E+00
 -14.918  0.126E+00  0.126E+00
 -14.908  0.131E+00  0.131E+00
 -14.898  0.136E+00  0.136E+00
 -14.888  0.142E+00  0.142E+00
 -14.878  0.147E+00  0.147E+00
 -14.868  0.150E+00  0.150E+00
 -14.858  0.151E+00  0.151E+00
 -14.848  0.150E+00  0.150E+00
 -14.838  0.148E+00  0.148E+00
 -14.828  0.144E+00  0.144E+00
 -14.818  0.139E+00  0.139E+00
 -14.808  0.134E+00  0.134E+00
 -14.798  0.129E+00  0.129E+00
 -14.788  0.125E+00  0.125E+00
 -14.778  0.120E+00  0.120E+00
 -14.768  0.116E+00  0.116E+00
 -14.758  0.113E+00  0.113E+00
 -14.748  0.110E+00  0.110E+00
 -14.738  0.107E+00  0.107E+00
 -14.728  0.105E+00  0.105E+00
 -14.718  0.103E+00  0.103E+00
 -14.708  0.100E+00  0.100E+00
 -14.698  0.973E-01  0.973E-01
 -14.688  0.941E-01  0.941E-01
 -14.678  0.911E-01  0.911E-01
 -14.668  0.887E-01  0.887E-01
 -14.658  0.874E-01  0.874E-01
 -14.648  0.872E-01  0.872E-01
 -14.638  0.882E-01  0.882E-01
 -14.628  0.899E-01  0.899E-01
 -14.618  0.916E-01  0.916E-01
 -14.608  0.928E-01  0.928E-01
 -14.598  0.928E-01  0.928E-01
 -14.588  0.912E-01  0.912E-01
 -14.578  0.882E-01  0.882E-01
 -14.568  0.839E-01  0.839E-01
 -14.558  0.788E-01  0.788E-01
 -14.548  0.736E-01  0.736E-01
 -14.538  0.687E-01  0.687E-01
 -14.528  0.646E-01  0.646E-01
 -14.518  0.614E-01  0.614E-01
 -14.508  0.593E-01  0.593E-01
 -14.498  0.580E-01  0.580E-01
 -14.488  0.573E-01  0.573E-01
 -14.478  0.570E-01  0.570E-01
 -14.468  0.568E-01  0.568E-01
 -14.458  0.567E-01  0.567E-01
 -14.448  0.565E-01  0.565E-01
 -14.438  0.565E-01  0.565E-01
 -14.428  0.566E-01  0.566E-01
 -14.418  0.569E-01  0.569E-01
 -14.408  0.576E-01  0.576E-01
 -14.398  0.586E-01  0.586E-01
 -14.388  0.599E-01  0.599E-01
 -14.378  0.616E-01  0.616E-01
 -14.368  0.637E-01  0.637E-01
 -14.358  0.661E-01  0.661E-01
 -14.348  0.688E-01  0.688E-01
 -14.338  0.713E-01  0.713E-01
 -14.328  0.733E-01  0.733E-01
 -14.318  0.740E-01  0.740E-01
 -14.308  0.730E-01  0.730E-01
 -14.298  0.697E-01  0.697E-01
 -14.288  0.640E-01  0.640E-01
 -14.278  0.563E-01  0.563E-01
 -14.268  0.474E-01  0.474E-01
 -14.258  0.383E-01  0.383E-01
 -14.248  0.302E-01  0.302E-01
 -14.238  0.242E-01  0.242E-01
 -14.228  0.208E-01  0.208E-01
 -14.218  0.204E-01  0.204E-01
 -14.208  0.228E-01  0.228E-01
 -14.198  0.274E-01  0.274E-01
 -14.188  0.332E-01  0.332E-01
 -14.178  0.394E-01  0.394E-01
 -14.168  0.449E-01  0.449E-01
 -14.158  0.493E-01  0.493E-01
 -14.148  0.521E-01  0.521E-01
 -14.138  0.534E-01  0.534E-01
 -14.128  0.535E-01  0.535E-01
 -14.118  0.530E-01  0.530E-01
 -14.108  0.525E-01  0.525E-01
 -14.098  0.521E-01  0.521E-01
 -14.088  0.522E-01  0.522E-01
 -14.078  0.523E-01  0.523E-01
 -14.068  0.522E-01  0.522E-01
 -14.058  0.512E-01  0.512E-01
 -14.048  0.488E-01  0.488E-01
 -14.038  0.449E-01  0.449E-01
 -14.028  0.397E-01  0.397E-01
 -14.018  0.337E-01  0.337E-01
 -14.008  0.275E-01  0.275E-01
 -13.998  0.221E-01  0.221E-01
 -13.988  0.179E-01  0.179E-01
 -13.978  0.156E-01  0.156E-01
 -13.968  0.150E-01  0.150E-01
 -13.958  0.162E-01  0.162E-01
 -13.948  0.188E-01  0.188E-01
 -13.938  0.222E-01  0.222E-01
 -13.928  0.261E-01  0.261E-01
 -13.918  0.299E-01  0.299E-01
 -13.908  0.334E-01  0.334E-01
 -13.898  0.362E-01  0.362E-01
 -13.888  0.382E-01  0.382E-01
 -13.878  0.393E-01  0.393E-01
 -13.868  0.397E-01  0.397E-01
 -13.858  0.396E-01  0.396E-01
 -13.848  0.393E-01  0.393E-01
 -13.838  0.391E-01  0.391E-01
 -13.828  0.393E-01  0.393E-01
 -13.818  0.399E-01  0.399E-01
 -13.808  0.406E-01  0.406E-01
 -13.798  0.413E-01  0.413E-01
 -13.788  0.417E-01  0.417E-01
 -13.778  0.416E-01  0.416E-01
 -13.768  0.410E-01  0.410E-01
 -13.758  0.400E-01  0.400E-01
 -13.748  0.390E-01  0.390E-01
 -13.738  0.382E-01  0.382E-01
 -13.728  0.378E-01  0.378E-01
 -13.718  0.381E-01  0.381E-01
 -13.708  0.390E-01  0.390E-01
 -13.698  0.405E-01  0.405E-01
 -13.688  0.424E-01  0.424E-01
 -13.678  0.444E-01  0.444E-01
 -13.668  0.466E-01  0.466E-01
 -13.658  0.487E-01  0.487E-01
 -13.648  0.507E-01  0.507E-01
 -13.638  0.524E-01  0.524E-01
 -13.628  0.539E-01  0.539E-01
 -13.618  0.549E-01  0.549E-01
 -13.608  0.554E-01  0.554E-01
 -13.598  0.554E-01  0.554E-01
 -13.588  0.549E-01  0.549E-01
 -13.578  0.540E-01  0.540E-01
 -13.568  0.528E-01  0.528E-01
 -13.558  0.514E-01  0.514E-01
 -13.548  0.499E-01  0.499E-01
 -13.538  0.484E-01  0.484E-01
 -13.528  0.469E-01  0.469E-01
 -13.518  0.456E-01  0.456E-01
 -13.508  0.445E-01  0.445E-01
 -13.498  0.437E-01  0.437E-01
 -13.488  0.432E-01  0.432E-01
 -13.478  0.432E-01  0.432E-01
 -13.468  0.434E-01  0.434E-01
 -13.458  0.440E-01  0.440E-01
 -13.448  0.448E-01  0.448E-01
 -13.438  0.457E-01  0.457E-01
 -13.428  0.466E-01  0.466E-01
 -13.418  0.474E-01  0.474E-01
 -13.408  0.482E-01  0.482E-01
 -13.398  0.487E-01  0.487E-01
 -13.388  0.490E-01  0.490E-01
 -13.378  0.491E-01  0.491E-01
 -13.368  0.491E-01  0.491E-01
 -13.358  0.488E-01  0.488E-01
 -13.348  0.486E-01  0.486E-01
 -13.338  0.483E-01  0.483E-01
 -13.328  0.482E-01  0.482E-01
 -13.318  0.481E-01  0.481E-01
 -13.308  0.481E-01  0.481E-01
 -13.298  0.481E-01  0.481E-01
 -13.288  0.479E-01  0.479E-01
 -13.278  0.475E-01  0.475E-01
 -13.268  0.470E-01  0.470E-01
 -13.258  0.463E-01  0.463E-01
 -13.248  0.455E-01  0.455E-01
 -13.238  0.447E-01  0.447E-01
 -13.228  0.441E-01  0.441E-01
 -13.218  0.437E-01  0.437E-01
 -13.208  0.436E-01  0.436E-01
 -13.198  0.439E-01  0.439E-01
 -13.188  0.443E-01  0.443E-01
 -13.178  0.451E-01  0.451E-01
 -13.168  0.459E-01  0.459E-01
 -13.158  0.470E-01  0.470E-01
 -13.148  0.482E-01  0.482E-01
 -13.138  0.497E-01  0.497E-01
 -13.128  0.514E-01  0.514E-01
 -13.118  0.532E-01  0.532E-01
 -13.108  0.550E-01  0.550E-01
 -13.098  0.565E-01  0.565E-01
 -13.088  0.576E-01  0.576E-01
 -13.078  0.581E-01  0.581E-01
 -13.068  0.578E-01  0.578E-01
 -13.058  0.570E-01  0.570E-01
 -13.048  0.561E-01  0.561E-01
 -13.038  0.557E-01  0.557E-01
 -13.028  0.561E-01  0.561E-01
 -13.018  0.580E-01  0.580E-01
 -13.008  0.615E-01  0.615E-01
 -12.998  0.664E-01  0.664E-01
 -12.988  0.723E-01  0.723E-01
 -12.978  0.786E-01  0.786E-01
 -12.968  0.844E-01  0.844E-01
 -12.958  0.889E-01  0.889E-01
 -12.948  0.917E-01  0.917E-01
 -12.938  0.926E-01  0.926E-01
 -12.928  0.916E-01  0.916E-01
 -12.918  0.892E-01  0.892E-01
 -12.908  0.861E-01  0.861E-01
 -12.898  0.829E-01  0.829E-01
 -12.888  0.801E-01  0.801E-01
 -12.878  0.780E-01  0.780E-01
 -12.868  0.768E-01  0.768E-01
 -12.858  0.763E-01  0.763E-01
 -12.848  0.763E-01  0.763E-01
 -12.838  0.765E-01  0.765E-01
 -12.828  0.765E-01  0.765E-01
 -12.818  0.761E-01  0.761E-01
 -12.808  0.753E-01  0.753E-01
 -12.798  0.741E-01  0.741E-01
 -12.788  0.725E-01  0.725E-01
 -12.778  0.707E-01  0.707E-01
 -12.768  0.689E-01  0.689E-01
 -12.758  0.672E-01  0.672E-01
 -12.748  0.657E-01  0.657E-01
 -12.738  0.643E-01  0.643E-01
 -12.728  0.632E-01  0.632E-01
 -12.718  0.622E-01  0.622E-01
 -12.708  0.614E-01  0.614E-01
 -12.698  0.608E-01  0.608E-01
 -12.688  0.606E-01  0.606E-01
 -12.678  0.608E-01  0.608E-01
 -12.668  0.616E-01  0.616E-01
 -12.658  0.628E-01  0.628E-01
 -12.648  0.643E-01  0.643E-01
 -12.638  0.659E-01  0.659E-01
 -12.628  0.672E-01  0.672E-01
 -12.618  0.679E-01  0.679E-01
 -12.608  0.679E-01  0.679E-01
 -12.598  0.669E-01  0.669E-01
 -12.588  0.650E-01  0.650E-01
 -12.578  0.625E-01  0.625E-01
 -12.568  0.597E-01  0.597E-01
 -12.558  0.570E-01  0.570E-01
 -12.548  0.548E-01  0.548E-01
 -12.538  0.536E-01  0.536E-01
 -12.528  0.534E-01  0.534E-01
 -12.518  0.541E-01  0.541E-01
 -12.508  0.556E-01  0.556E-01
 -12.498  0.574E-01  0.574E-01
 -12.488  0.591E-01  0.591E-01
 -12.478  0.605E-01  0.605E-01
 -12.468  0.612E-01  0.612E-01
 -12.458  0.614E-01  0.614E-01
 -12.448  0.612E-01  0.612E-01
 -12.438  0.608E-01  0.608E-01
 -12.428  0.603E-01  0.603E-01
 -12.418  0.598E-01  0.598E-01
 -12.408  0.595E-01  0.595E-01
 -12.398  0.590E-01  0.590E-01
 -12.388  0.584E-01  0.584E-01
 -12.378  0.575E-01  0.575E-01
 -12.368  0.561E-01  0.561E-01
 -12.358  0.544E-01  0.544E-01
 -12.348  0.526E-01  0.526E-01
 -12.338  0.508E-01  0.508E-01
 -12.328  0.496E-01  0.496E-01
 -12.318  0.490E-01  0.490E-01
 -12.308  0.494E-01  0.494E-01
 -12.298  0.506E-01  0.506E-01
 -12.288  0.526E-01  0.526E-01
 -12.278  0.549E-01  0.549E-01
 -12.268  0.571E-01  0.571E-01
 -12.258  0.588E-01  0.588E-01
 -12.248  0.598E-01  0.598E-01
 -12.238  0.599E-01  0.599E-01
 -12.228  0.592E-01  0.592E-01
 -12.218  0.579E-01  0.579E-01
 -12.208  0.562E-01  0.562E-01
 -12.198  0.544E-01  0.544E-01
 -12.188  0.528E-01  0.528E-01
 -12.178  0.515E-01  0.515E-01
 -12.168  0.504E-01  0.504E-01
 -12.158  0.496E-01  0.496E-01
 -12.148  0.488E-01  0.488E-01
 -12.138  0.482E-01  0.482E-01
 -12.128  0.475E-01  0.475E-01
 -12.118  0.470E-01  0.470E-01
 -12.108  0.467E-01  0.467E-01
 -12.098  0.468E-01  0.468E-01
 -12.088  0.475E-01  0.475E-01
 -12.078  0.489E-01  0.489E-01
 -12.068  0.509E-01  0.509E-01
 -12.058  0.533E-01  0.533E-01
 -12.048  0.556E-01  0.556E-01
 -12.038  0.575E-01  0.575E-01
 -12.028  0.584E-01  0.584E-01
 -12.018  0.580E-01  0.580E-01
 -12.008  0.565E-01  0.565E-01
 -11.998  0.539E-01  0.539E-01
 -11.988  0.508E-01  0.508E-01
 -11.978  0.477E-01  0.477E-01
 -11.968  0.451E-01  0.451E-01
 -11.958  0.434E-01  0.434E-01
 -11.948  0.426E-01  0.426E-01
 -11.938  0.427E-01  0.427E-01
 -11.928  0.435E-01  0.435E-01
 -11.918  0.446E-01  0.446E-01
 -11.908  0.458E-01  0.458E-01
 -11.898  0.467E-01  0.467E-01
 -11.888  0.474E-01  0.474E-01
 -11.878  0.478E-01  0.478E-01
 -11.868  0.480E-01  0.480E-01
 -11.858  0.481E-01  0.481E-01
 -11.848  0.485E-01  0.485E-01
 -11.838  0.490E-01  0.490E-01
 -11.828  0.498E-01  0.498E-01
 -11.818  0.507E-01  0.507E-01
 -11.808  0.515E-01  0.515E-01
 -11.798  0.519E-01  0.519E-01
 -11.788  0.518E-01  0.518E-01
 -11.778  0.509E-01  0.509E-01
 -11.768  0.494E-01  0.494E-01
 -11.758  0.474E-01  0.474E-01
 -11.748  0.450E-01  0.450E-01
 -11.738  0.428E-01  0.428E-01
 -11.728  0.407E-01  0.407E-01
 -11.718  0.392E-01  0.392E-01
 -11.708  0.383E-01  0.383E-01
 -11.698  0.381E-01  0.381E-01
 -11.688  0.386E-01  0.386E-01
 -11.678  0.398E-01  0.398E-01
 -11.668  0.415E-01  0.415E-01
 -11.658  0.435E-01  0.435E-01
 -11.648  0.457E-01  0.457E-01
 -11.638  0.478E-01  0.478E-01
 -11.628  0.496E-01  0.496E-01
 -11.618  0.508E-01  0.508E-01
 -11.608  0.513E-01  0.513E-01
 -11.598  0.510E-01  0.510E-01
 -11.588  0.499E-01  0.499E-01
 -11.578  0.483E-01  0.483E-01
 -11.568  0.462E-01  0.462E-01
 -11.558  0.441E-01  0.441E-01
 -11.548  0.420E-01  0.420E-01
 -11.538  0.401E-01  0.401E-01
 -11.528  0.387E-01  0.387E-01
 -11.518  0.378E-01  0.378E-01
 -11.508  0.374E-01  0.374E-01
 -11.498  0.375E-01  0.375E-01
 -11.488  0.379E-01  0.379E-01
 -11.478  0.387E-01  0.387E-01
 -11.468  0.397E-01  0.397E-01
 -11.458  0.408E-01  0.408E-01
 -11.448  0.419E-01  0.419E-01
 -11.438  0.430E-01  0.430E-01
 -11.428  0.439E-01  0.439E-01
 -11.418  0.444E-01  0.444E-01
 -11.408  0.446E-01  0.446E-01
 -11.398  0.445E-01  0.445E-01
 -11.388  0.439E-01  0.439E-01
 -11.378  0.432E-01  0.432E-01
 -11.368  0.424E-01  0.424E-01
 -11.358  0.418E-01  0.418E-01
 -11.348  0.414E-01  0.414E-01
 -11.338  0.413E-01  0.413E-01
 -11.328  0.413E-01  0.413E-01
 -11.318  0.414E-01  0.414E-01
 -11.308  0.413E-01  0.413E-01
 -11.298  0.408E-01  0.408E-01
 -11.288  0.400E-01  0.400E-01
 -11.278  0.390E-01  0.390E-01
 -11.268  0.379E-01  0.379E-01
 -11.258  0.368E-01  0.368E-01
 -11.248  0.361E-01  0.361E-01
 -11.238  0.357E-01  0.357E-01
 -11.228  0.357E-01  0.357E-01
 -11.218  0.361E-01  0.361E-01
 -11.208  0.367E-01  0.367E-01
 -11.198  0.376E-01  0.376E-01
 -11.188  0.385E-01  0.385E-01
 -11.178  0.395E-01  0.395E-01
 -11.168  0.404E-01  0.404E-01
 -11.158  0.412E-01  0.412E-01
 -11.148  0.417E-01  0.417E-01
 -11.138  0.420E-01  0.420E-01
 -11.128  0.421E-01  0.421E-01
 -11.118  0.418E-01  0.418E-01
 -11.108  0.413E-01  0.413E-01
 -11.098  0.404E-01  0.404E-01
 -11.088  0.393E-01  0.393E-01
 -11.078  0.379E-01  0.379E-01
 -11.068  0.365E-01  0.365E-01
 -11.058  0.352E-01  0.352E-01
 -11.048  0.343E-01  0.343E-01
 -11.038  0.338E-01  0.338E-01
 -11.028  0.340E-01  0.340E-01
 -11.018  0.346E-01  0.346E-01
 -11.008  0.357E-01  0.357E-01
 -10.998  0.369E-01  0.369E-01
 -10.988  0.379E-01  0.379E-01
 -10.978  0.387E-01  0.387E-01
 -10.968  0.391E-01  0.391E-01
 -10.958  0.389E-01  0.389E-01
 -10.948  0.385E-01  0.385E-01
 -10.938  0.377E-01  0.377E-01
 -10.928  0.368E-01  0.368E-01
 -10.918  0.360E-01  0.360E-01
 -10.908  0.353E-01  0.353E-01
 -10.898  0.349E-01  0.349E-01
 -10.888  0.350E-01  0.350E-01
 -10.878  0.354E-01  0.354E-01
 -10.868  0.362E-01  0.362E-01
 -10.858  0.372E-01  0.372E-01
 -10.848  0.384E-01  0.384E-01
 -10.838  0.396E-01  0.396E-01
 -10.828  0.405E-01  0.405E-01
 -10.818  0.412E-01  0.412E-01
 -10.808  0.414E-01  0.414E-01
 -10.798  0.412E-01  0.412E-01
 -10.788  0.406E-01  0.406E-01
 -10.778  0.396E-01  0.396E-01
 -10.768  0.382E-01  0.382E-01
 -10.758  0.364E-01  0.364E-01
 -10.748  0.345E-01  0.345E-01
 -10.738  0.325E-01  0.325E-01
 -10.728  0.307E-01  0.307E-01
 -10.718  0.293E-01  0.293E-01
 -10.708  0.286E-01  0.286E-01
 -10.698  0.286E-01  0.286E-01
 -10.688  0.294E-01  0.294E-01
 -10.678  0.309E-01  0.309E-01
 -10.668  0.330E-01  0.330E-01
 -10.658  0.354E-01  0.354E-01
 -10.648  0.379E-01  0.379E-01
 -10.638  0.401E-01  0.401E-01
 -10.628  0.420E-01  0.420E-01
 -10.618  0.434E-01  0.434E-01
 -10.608  0.441E-01  0.441E-01
 -10.598  0.442E-01  0.442E-01
 -10.588  0.436E-01  0.436E-01
 -10.578  0.424E-01  0.424E-01
 -10.568  0.407E-01  0.407E-01
 -10.558  0.385E-01  0.385E-01
 -10.548  0.361E-01  0.361E-01
 -10.538  0.337E-01  0.337E-01
 -10.528  0.316E-01  0.316E-01
 -10.518  0.299E-01  0.299E-01
 -10.508  0.288E-01  0.288E-01
 -10.498  0.284E-01  0.284E-01
 -10.488  0.286E-01  0.286E-01
 -10.478  0.294E-01  0.294E-01
 -10.468  0.306E-01  0.306E-01
 -10.458  0.321E-01  0.321E-01
 -10.448  0.336E-01  0.336E-01
 -10.438  0.350E-01  0.350E-01
 -10.428  0.362E-01  0.362E-01
 -10.418  0.371E-01  0.371E-01
 -10.408  0.377E-01  0.377E-01
 -10.398  0.380E-01  0.380E-01
 -10.388  0.382E-01  0.382E-01
 -10.378  0.382E-01  0.382E-01
 -10.368  0.381E-01  0.381E-01
 -10.358  0.379E-01  0.379E-01
 -10.348  0.378E-01  0.378E-01
 -10.338  0.375E-01  0.375E-01
 -10.328  0.372E-01  0.372E-01
 -10.318  0.367E-01  0.367E-01
 -10.308  0.361E-01  0.361E-01
 -10.298  0.353E-01  0.353E-01
 -10.288  0.346E-01  0.346E-01
 -10.278  0.339E-01  0.339E-01
 -10.268  0.333E-01  0.333E-01
 -10.258  0.329E-01  0.329E-01
 -10.248  0.326E-01  0.326E-01
 -10.238  0.324E-01  0.324E-01
 -10.228  0.322E-01  0.322E-01
 -10.218  0.319E-01  0.319E-01
 -10.208  0.316E-01  0.316E-01
 -10.198  0.313E-01  0.313E-01
 -10.188  0.311E-01  0.311E-01
 -10.178  0.312E-01  0.312E-01
 -10.168  0.316E-01  0.316E-01
 -10.158  0.326E-01  0.326E-01
 -10.148  0.338E-01  0.338E-01
 -10.138  0.354E-01  0.354E-01
 -10.128  0.369E-01  0.369E-01
 -10.118  0.381E-01  0.381E-01
 -10.108  0.389E-01  0.389E-01
 -10.098  0.392E-01  0.392E-01
 -10.088  0.388E-01  0.388E-01
 -10.078  0.380E-01  0.380E-01
 -10.068  0.367E-01  0.367E-01
 -10.058  0.353E-01  0.353E-01
 -10.048  0.337E-01  0.337E-01
 -10.038  0.322E-01  0.322E-01
 -10.028  0.308E-01  0.308E-01
 -10.018  0.296E-01  0.296E-01
 -10.008  0.287E-01  0.287E-01
  -9.998  0.281E-01  0.281E-01
  -9.988  0.280E-01  0.280E-01
  -9.978  0.284E-01  0.284E-01
  -9.968  0.294E-01  0.294E-01
  -9.958  0.308E-01  0.308E-01
  -9.948  0.327E-01  0.327E-01
  -9.938  0.348E-01  0.348E-01
  -9.928  0.369E-01  0.369E-01
  -9.918  0.386E-01  0.386E-01
  -9.908  0.397E-01  0.397E-01
  -9.898  0.401E-01  0.401E-01
  -9.888  0.397E-01  0.397E-01
  -9.878  0.386E-01  0.386E-01
  -9.868  0.369E-01  0.369E-01
  -9.858  0.349E-01  0.349E-01
  -9.848  0.327E-01  0.327E-01
  -9.838  0.305E-01  0.305E-01
  -9.828  0.286E-01  0.286E-01
  -9.818  0.270E-01  0.270E-01
  -9.808  0.260E-01  0.260E-01
  -9.798  0.255E-01  0.255E-01
  -9.788  0.257E-01  0.257E-01
  -9.778  0.264E-01  0.264E-01
  -9.768  0.277E-01  0.277E-01
  -9.758  0.293E-01  0.293E-01
  -9.748  0.314E-01  0.314E-01
  -9.738  0.336E-01  0.336E-01
  -9.728  0.358E-01  0.358E-01
  -9.718  0.379E-01  0.379E-01
  -9.708  0.395E-01  0.395E-01
  -9.698  0.406E-01  0.406E-01
  -9.688  0.408E-01  0.408E-01
  -9.678  0.402E-01  0.402E-01
  -9.668  0.387E-01  0.387E-01
  -9.658  0.364E-01  0.364E-01
  -9.648  0.336E-01  0.336E-01
  -9.638  0.305E-01  0.305E-01
  -9.628  0.275E-01  0.275E-01
  -9.618  0.249E-01  0.249E-01
  -9.608  0.231E-01  0.231E-01
  -9.598  0.222E-01  0.222E-01
  -9.588  0.224E-01  0.224E-01
  -9.578  0.236E-01  0.236E-01
  -9.568  0.257E-01  0.257E-01
  -9.558  0.283E-01  0.283E-01
  -9.548  0.313E-01  0.313E-01
  -9.538  0.343E-01  0.343E-01
  -9.528  0.371E-01  0.371E-01
  -9.518  0.393E-01  0.393E-01
  -9.508  0.408E-01  0.408E-01
  -9.498  0.416E-01  0.416E-01
  -9.488  0.415E-01  0.415E-01
  -9.478  0.405E-01  0.405E-01
  -9.468  0.386E-01  0.386E-01
  -9.458  0.359E-01  0.359E-01
  -9.448  0.327E-01  0.327E-01
  -9.438  0.292E-01  0.292E-01
  -9.428  0.256E-01  0.256E-01
  -9.418  0.224E-01  0.224E-01
  -9.408  0.200E-01  0.200E-01
  -9.398  0.185E-01  0.185E-01
  -9.388  0.181E-01  0.181E-01
  -9.378  0.189E-01  0.189E-01
  -9.368  0.208E-01  0.208E-01
  -9.358  0.236E-01  0.236E-01
  -9.348  0.269E-01  0.269E-01
  -9.338  0.305E-01  0.305E-01
  -9.328  0.341E-01  0.341E-01
  -9.318  0.374E-01  0.374E-01
  -9.308  0.403E-01  0.403E-01
  -9.298  0.425E-01  0.425E-01
  -9.288  0.439E-01  0.439E-01
  -9.278  0.445E-01  0.445E-01
  -9.268  0.441E-01  0.441E-01
  -9.258  0.427E-01  0.427E-01
  -9.248  0.403E-01  0.403E-01
  -9.238  0.369E-01  0.369E-01
  -9.228  0.328E-01  0.328E-01
  -9.218  0.284E-01  0.284E-01
  -9.208  0.239E-01  0.239E-01
  -9.198  0.199E-01  0.199E-01
  -9.188  0.168E-01  0.168E-01
  -9.178  0.149E-01  0.149E-01
  -9.168  0.144E-01  0.144E-01
  -9.158  0.152E-01  0.152E-01
  -9.148  0.173E-01  0.173E-01
  -9.138  0.203E-01  0.203E-01
  -9.128  0.240E-01  0.240E-01
  -9.118  0.278E-01  0.278E-01
  -9.108  0.316E-01  0.316E-01
  -9.098  0.350E-01  0.350E-01
  -9.088  0.379E-01  0.379E-01
  -9.078  0.400E-01  0.400E-01
  -9.068  0.412E-01  0.412E-01
  -9.058  0.415E-01  0.415E-01
  -9.048  0.408E-01  0.408E-01
  -9.038  0.392E-01  0.392E-01
  -9.028  0.367E-01  0.367E-01
  -9.018  0.337E-01  0.337E-01
  -9.008  0.305E-01  0.305E-01
  -8.998  0.274E-01  0.274E-01
  -8.988  0.249E-01  0.249E-01
  -8.978  0.231E-01  0.231E-01
  -8.968  0.222E-01  0.222E-01
  -8.958  0.221E-01  0.221E-01
  -8.948  0.227E-01  0.227E-01
  -8.938  0.238E-01  0.238E-01
  -8.928  0.251E-01  0.251E-01
  -8.918  0.265E-01  0.265E-01
  -8.908  0.279E-01  0.279E-01
  -8.898  0.291E-01  0.291E-01
  -8.888  0.302E-01  0.302E-01
  -8.878  0.312E-01  0.312E-01
  -8.868  0.321E-01  0.321E-01
  -8.858  0.327E-01  0.327E-01
  -8.848  0.329E-01  0.329E-01
  -8.838  0.327E-01  0.327E-01
  -8.828  0.319E-01  0.319E-01
  -8.818  0.305E-01  0.305E-01
  -8.808  0.286E-01  0.286E-01
  -8.798  0.264E-01  0.264E-01
  -8.788  0.243E-01  0.243E-01
  -8.778  0.225E-01  0.225E-01
  -8.768  0.212E-01  0.212E-01
  -8.758  0.208E-01  0.208E-01
  -8.748  0.212E-01  0.212E-01
  -8.738  0.224E-01  0.224E-01
  -8.728  0.243E-01  0.243E-01
  -8.718  0.265E-01  0.265E-01
  -8.708  0.289E-01  0.289E-01
  -8.698  0.313E-01  0.313E-01
  -8.688  0.336E-01  0.336E-01
  -8.678  0.356E-01  0.356E-01
  -8.668  0.371E-01  0.371E-01
  -8.658  0.382E-01  0.382E-01
  -8.648  0.385E-01  0.385E-01
  -8.638  0.381E-01  0.381E-01
  -8.628  0.368E-01  0.368E-01
  -8.618  0.346E-01  0.346E-01
  -8.608  0.314E-01  0.314E-01
  -8.598  0.276E-01  0.276E-01
  -8.588  0.235E-01  0.235E-01
  -8.578  0.195E-01  0.195E-01
  -8.568  0.161E-01  0.161E-01
  -8.558  0.138E-01  0.138E-01
  -8.548  0.128E-01  0.128E-01
  -8.538  0.132E-01  0.132E-01
  -8.528  0.150E-01  0.150E-01
  -8.518  0.177E-01  0.177E-01
  -8.508  0.212E-01  0.212E-01
  -8.498  0.249E-01  0.249E-01
  -8.488  0.285E-01  0.285E-01
  -8.478  0.317E-01  0.317E-01
  -8.468  0.341E-01  0.341E-01
  -8.458  0.358E-01  0.358E-01
  -8.448  0.366E-01  0.366E-01
  -8.438  0.368E-01  0.368E-01
  -8.428  0.364E-01  0.364E-01
  -8.418  0.356E-01  0.356E-01
  -8.408  0.343E-01  0.343E-01
  -8.398  0.328E-01  0.328E-01
  -8.388  0.309E-01  0.309E-01
  -8.378  0.289E-01  0.289E-01
  -8.368  0.266E-01  0.266E-01
  -8.358  0.243E-01  0.243E-01
  -8.348  0.221E-01  0.221E-01
  -8.338  0.202E-01  0.202E-01
  -8.328  0.187E-01  0.187E-01
  -8.318  0.179E-01  0.179E-01
  -8.308  0.177E-01  0.177E-01
  -8.298  0.182E-01  0.182E-01
  -8.288  0.193E-01  0.193E-01
  -8.278  0.209E-01  0.209E-01
  -8.268  0.229E-01  0.229E-01
  -8.258  0.250E-01  0.250E-01
  -8.248  0.271E-01  0.271E-01
  -8.238  0.291E-01  0.291E-01
  -8.228  0.306E-01  0.306E-01
  -8.218  0.318E-01  0.318E-01
  -8.208  0.324E-01  0.324E-01
  -8.198  0.324E-01  0.324E-01
  -8.188  0.318E-01  0.318E-01
  -8.178  0.306E-01  0.306E-01
  -8.168  0.289E-01  0.289E-01
  -8.158  0.268E-01  0.268E-01
  -8.148  0.244E-01  0.244E-01
  -8.138  0.221E-01  0.221E-01
  -8.128  0.200E-01  0.200E-01
  -8.118  0.184E-01  0.184E-01
  -8.108  0.176E-01  0.176E-01
  -8.098  0.175E-01  0.175E-01
  -8.088  0.182E-01  0.182E-01
  -8.078  0.196E-01  0.196E-01
  -8.068  0.215E-01  0.215E-01
  -8.058  0.238E-01  0.238E-01
  -8.048  0.263E-01  0.263E-01
  -8.038  0.286E-01  0.286E-01
  -8.028  0.306E-01  0.306E-01
  -8.018  0.321E-01  0.321E-01
  -8.008  0.329E-01  0.329E-01
  -7.998  0.330E-01  0.330E-01
  -7.988  0.324E-01  0.324E-01
  -7.978  0.310E-01  0.310E-01
  -7.968  0.290E-01  0.290E-01
  -7.958  0.266E-01  0.266E-01
  -7.948  0.240E-01  0.240E-01
  -7.938  0.214E-01  0.214E-01
  -7.928  0.190E-01  0.190E-01
  -7.918  0.171E-01  0.171E-01
  -7.908  0.158E-01  0.158E-01
  -7.898  0.152E-01  0.152E-01
  -7.888  0.154E-01  0.154E-01
  -7.878  0.161E-01  0.161E-01
  -7.868  0.173E-01  0.173E-01
  -7.858  0.188E-01  0.188E-01
  -7.848  0.205E-01  0.205E-01
  -7.838  0.221E-01  0.221E-01
  -7.828  0.237E-01  0.237E-01
  -7.818  0.251E-01  0.251E-01
  -7.808  0.264E-01  0.264E-01
  -7.798  0.275E-01  0.275E-01
  -7.788  0.285E-01  0.285E-01
  -7.778  0.294E-01  0.294E-01
  -7.768  0.300E-01  0.300E-01
  -7.758  0.302E-01  0.302E-01
  -7.748  0.299E-01  0.299E-01
  -7.738  0.290E-01  0.290E-01
  -7.728  0.277E-01  0.277E-01
  -7.718  0.259E-01  0.259E-01
  -7.708  0.238E-01  0.238E-01
  -7.698  0.217E-01  0.217E-01
  -7.688  0.199E-01  0.199E-01
  -7.678  0.184E-01  0.184E-01
  -7.668  0.174E-01  0.174E-01
  -7.658  0.168E-01  0.168E-01
  -7.648  0.168E-01  0.168E-01
  -7.638  0.171E-01  0.171E-01
  -7.628  0.176E-01  0.176E-01
  -7.618  0.184E-01  0.184E-01
  -7.608  0.191E-01  0.191E-01
  -7.598  0.200E-01  0.200E-01
  -7.588  0.208E-01  0.208E-01
  -7.578  0.216E-01  0.216E-01
  -7.568  0.224E-01  0.224E-01
  -7.558  0.231E-01  0.231E-01
  -7.548  0.237E-01  0.237E-01
  -7.538  0.241E-01  0.241E-01
  -7.528  0.242E-01  0.242E-01
  -7.518  0.241E-01  0.241E-01
  -7.508  0.238E-01  0.238E-01
  -7.498  0.232E-01  0.232E-01
  -7.488  0.224E-01  0.224E-01
  -7.478  0.216E-01  0.216E-01
  -7.468  0.209E-01  0.209E-01
  -7.458  0.204E-01  0.204E-01
  -7.448  0.202E-01  0.202E-01
  -7.438  0.202E-01  0.202E-01
  -7.428  0.205E-01  0.205E-01
  -7.418  0.210E-01  0.210E-01
  -7.408  0.217E-01  0.217E-01
  -7.398  0.224E-01  0.224E-01
  -7.388  0.229E-01  0.229E-01
  -7.378  0.233E-01  0.233E-01
  -7.368  0.234E-01  0.234E-01
  -7.358  0.231E-01  0.231E-01
  -7.348  0.224E-01  0.224E-01
  -7.338  0.215E-01  0.215E-01
  -7.328  0.202E-01  0.202E-01
  -7.318  0.188E-01  0.188E-01
  -7.308  0.173E-01  0.173E-01
  -7.298  0.159E-01  0.159E-01
  -7.288  0.148E-01  0.148E-01
  -7.278  0.140E-01  0.140E-01
  -7.268  0.136E-01  0.136E-01
  -7.258  0.137E-01  0.137E-01
  -7.248  0.142E-01  0.142E-01
  -7.238  0.152E-01  0.152E-01
  -7.228  0.164E-01  0.164E-01
  -7.218  0.177E-01  0.177E-01
  -7.208  0.191E-01  0.191E-01
  -7.198  0.205E-01  0.205E-01
  -7.188  0.218E-01  0.218E-01
  -7.178  0.230E-01  0.230E-01
  -7.168  0.240E-01  0.240E-01
  -7.158  0.247E-01  0.247E-01
  -7.148  0.251E-01  0.251E-01
  -7.138  0.252E-01  0.252E-01
  -7.128  0.248E-01  0.248E-01
  -7.118  0.239E-01  0.239E-01
  -7.108  0.226E-01  0.226E-01
  -7.098  0.208E-01  0.208E-01
  -7.088  0.189E-01  0.189E-01
  -7.078  0.168E-01  0.168E-01
  -7.068  0.149E-01  0.149E-01
  -7.058  0.133E-01  0.133E-01
  -7.048  0.121E-01  0.121E-01
  -7.038  0.114E-01  0.114E-01
  -7.028  0.112E-01  0.112E-01
  -7.018  0.113E-01  0.113E-01
  -7.008  0.118E-01  0.118E-01
  -6.998  0.126E-01  0.126E-01
  -6.988  0.135E-01  0.135E-01
  -6.978  0.146E-01  0.146E-01
  -6.968  0.157E-01  0.157E-01
  -6.958  0.167E-01  0.167E-01
  -6.948  0.177E-01  0.177E-01
  -6.938  0.185E-01  0.185E-01
  -6.928  0.192E-01  0.192E-01
  -6.918  0.195E-01  0.195E-01
  -6.908  0.195E-01  0.195E-01
  -6.898  0.192E-01  0.192E-01
  -6.888  0.185E-01  0.185E-01
  -6.878  0.175E-01  0.175E-01
  -6.868  0.164E-01  0.164E-01
  -6.858  0.152E-01  0.152E-01
  -6.848  0.141E-01  0.141E-01
  -6.838  0.132E-01  0.132E-01
  -6.828  0.127E-01  0.127E-01
  -6.818  0.125E-01  0.125E-01
  -6.808  0.127E-01  0.127E-01
  -6.798  0.132E-01  0.132E-01
  -6.788  0.138E-01  0.138E-01
  -6.778  0.144E-01  0.144E-01
  -6.768  0.150E-01  0.150E-01
  -6.758  0.154E-01  0.154E-01
  -6.748  0.156E-01  0.156E-01
  -6.738  0.156E-01  0.156E-01
  -6.728  0.154E-01  0.154E-01
  -6.718  0.150E-01  0.150E-01
  -6.708  0.145E-01  0.145E-01
  -6.698  0.139E-01  0.139E-01
  -6.688  0.133E-01  0.133E-01
  -6.678  0.126E-01  0.126E-01
  -6.668  0.119E-01  0.119E-01
  -6.658  0.113E-01  0.113E-01
  -6.648  0.108E-01  0.108E-01
  -6.638  0.103E-01  0.103E-01
  -6.628  0.101E-01  0.101E-01
  -6.618  0.992E-02  0.992E-02
  -6.608  0.995E-02  0.995E-02
  -6.598  0.101E-01  0.101E-01
  -6.588  0.105E-01  0.105E-01
  -6.578  0.110E-01  0.110E-01
  -6.568  0.118E-01  0.118E-01
  -6.558  0.127E-01  0.127E-01
  -6.548  0.137E-01  0.137E-01
  -6.538  0.148E-01  0.148E-01
  -6.528  0.158E-01  0.158E-01
  -6.518  0.166E-01  0.166E-01
  -6.508  0.171E-01  0.171E-01
  -6.498  0.171E-01  0.171E-01
  -6.488  0.167E-01  0.167E-01
  -6.478  0.158E-01  0.158E-01
  -6.468  0.146E-01  0.146E-01
  -6.458  0.131E-01  0.131E-01
  -6.448  0.115E-01  0.115E-01
  -6.438  0.101E-01  0.101E-01
  -6.428  0.893E-02  0.893E-02
  -6.418  0.809E-02  0.809E-02
  -6.408  0.762E-02  0.762E-02
  -6.398  0.752E-02  0.752E-02
  -6.388  0.774E-02  0.774E-02
  -6.378  0.820E-02  0.820E-02
  -6.368  0.879E-02  0.879E-02
  -6.358  0.943E-02  0.943E-02
  -6.348  0.100E-01  0.100E-01
  -6.338  0.106E-01  0.106E-01
  -6.328  0.110E-01  0.110E-01
  -6.318  0.112E-01  0.112E-01
  -6.308  0.114E-01  0.114E-01
  -6.298  0.115E-01  0.115E-01
  -6.288  0.115E-01  0.115E-01
  -6.278  0.114E-01  0.114E-01
  -6.268  0.113E-01  0.113E-01
  -6.258  0.111E-01  0.111E-01
  -6.248  0.110E-01  0.110E-01
  -6.238  0.108E-01  0.108E-01
  -6.228  0.106E-01  0.106E-01
  -6.218  0.106E-01  0.106E-01
  -6.208  0.106E-01  0.106E-01
  -6.198  0.108E-01  0.108E-01
  -6.188  0.110E-01  0.110E-01
  -6.178  0.113E-01  0.113E-01
  -6.168  0.115E-01  0.115E-01
  -6.158  0.116E-01  0.116E-01
  -6.148  0.116E-01  0.116E-01
  -6.138  0.114E-01  0.114E-01
  -6.128  0.110E-01  0.110E-01
  -6.118  0.105E-01  0.105E-01
  -6.108  0.980E-02  0.980E-02
  -6.098  0.908E-02  0.908E-02
  -6.088  0.835E-02  0.835E-02
  -6.078  0.765E-02  0.765E-02
  -6.068  0.702E-02  0.702E-02
  -6.058  0.649E-02  0.649E-02
  -6.048  0.609E-02  0.609E-02
  -6.038  0.586E-02  0.586E-02
  -6.028  0.579E-02  0.579E-02
  -6.018  0.590E-02  0.590E-02
  -6.008  0.618E-02  0.618E-02
  -5.998  0.662E-02  0.662E-02
  -5.988  0.720E-02  0.720E-02
  -5.978  0.789E-02  0.789E-02
  -5.968  0.868E-02  0.868E-02
  -5.958  0.954E-02  0.954E-02
  -5.948  0.105E-01  0.105E-01
  -5.938  0.114E-01  0.114E-01
  -5.928  0.122E-01  0.122E-01
  -5.918  0.128E-01  0.128E-01
  -5.908  0.132E-01  0.132E-01
  -5.898  0.132E-01  0.132E-01
  -5.888  0.127E-01  0.127E-01
  -5.878  0.118E-01  0.118E-01
  -5.868  0.106E-01  0.106E-01
  -5.858  0.908E-02  0.908E-02
  -5.848  0.750E-02  0.750E-02
  -5.838  0.602E-02  0.602E-02
  -5.828  0.480E-02  0.480E-02
  -5.818  0.395E-02  0.395E-02
  -5.808  0.353E-02  0.353E-02
  -5.798  0.352E-02  0.352E-02
  -5.788  0.386E-02  0.386E-02
  -5.778  0.447E-02  0.447E-02
  -5.768  0.523E-02  0.523E-02
  -5.758  0.603E-02  0.603E-02
  -5.748  0.679E-02  0.679E-02
  -5.738  0.745E-02  0.745E-02
  -5.728  0.797E-02  0.797E-02
  -5.718  0.835E-02  0.835E-02
  -5.708  0.858E-02  0.858E-02
  -5.698  0.868E-02  0.868E-02
  -5.688  0.866E-02  0.866E-02
  -5.678  0.855E-02  0.855E-02
  -5.668  0.836E-02  0.836E-02
  -5.658  0.811E-02  0.811E-02
  -5.648  0.785E-02  0.785E-02
  -5.638  0.760E-02  0.760E-02
  -5.628  0.739E-02  0.739E-02
  -5.618  0.725E-02  0.725E-02
  -5.608  0.720E-02  0.720E-02
  -5.598  0.721E-02  0.721E-02
  -5.588  0.728E-02  0.728E-02
  -5.578  0.736E-02  0.736E-02
  -5.568  0.741E-02  0.741E-02
  -5.558  0.737E-02  0.737E-02
  -5.548  0.722E-02  0.722E-02
  -5.538  0.694E-02  0.694E-02
  -5.528  0.654E-02  0.654E-02
  -5.518  0.605E-02  0.605E-02
  -5.508  0.551E-02  0.551E-02
  -5.498  0.499E-02  0.499E-02
  -5.488  0.454E-02  0.454E-02
  -5.478  0.421E-02  0.421E-02
  -5.468  0.404E-02  0.404E-02
  -5.458  0.405E-02  0.405E-02
  -5.448  0.422E-02  0.422E-02
  -5.438  0.453E-02  0.453E-02
  -5.428  0.492E-02  0.492E-02
  -5.418  0.535E-02  0.535E-02
  -5.408  0.577E-02  0.577E-02
  -5.398  0.617E-02  0.617E-02
  -5.388  0.652E-02  0.652E-02
  -5.378  0.682E-02  0.682E-02
  -5.368  0.706E-02  0.706E-02
  -5.358  0.725E-02  0.725E-02
  -5.348  0.738E-02  0.738E-02
  -5.338  0.741E-02  0.741E-02
  -5.328  0.731E-02  0.731E-02
  -5.318  0.707E-02  0.707E-02
  -5.308  0.667E-02  0.667E-02
  -5.298  0.614E-02  0.614E-02
  -5.288  0.552E-02  0.552E-02
  -5.278  0.488E-02  0.488E-02
  -5.268  0.432E-02  0.432E-02
  -5.258  0.391E-02  0.391E-02
  -5.248  0.369E-02  0.369E-02
  -5.238  0.369E-02  0.369E-02
  -5.228  0.388E-02  0.388E-02
  -5.218  0.420E-02  0.420E-02
  -5.208  0.458E-02  0.458E-02
  -5.198  0.492E-02  0.492E-02
  -5.188  0.515E-02  0.515E-02
  -5.178  0.522E-02  0.522E-02
  -5.168  0.513E-02  0.513E-02
  -5.158  0.487E-02  0.487E-02
  -5.148  0.451E-02  0.451E-02
  -5.138  0.412E-02  0.412E-02
  -5.128  0.376E-02  0.376E-02
  -5.118  0.350E-02  0.350E-02
  -5.108  0.338E-02  0.338E-02
  -5.098  0.343E-02  0.343E-02
  -5.088  0.364E-02  0.364E-02
  -5.078  0.400E-02  0.400E-02
  -5.068  0.445E-02  0.445E-02
  -5.058  0.496E-02  0.496E-02
  -5.048  0.547E-02  0.547E-02
  -5.038  0.593E-02  0.593E-02
  -5.028  0.628E-02  0.628E-02
  -5.018  0.647E-02  0.647E-02
  -5.008  0.645E-02  0.645E-02
  -4.998  0.620E-02  0.620E-02
  -4.988  0.572E-02  0.572E-02
  -4.978  0.505E-02  0.505E-02
  -4.968  0.423E-02  0.423E-02
  -4.958  0.337E-02  0.337E-02
  -4.948  0.256E-02  0.256E-02
  -4.938  0.189E-02  0.189E-02
  -4.928  0.144E-02  0.144E-02
  -4.918  0.123E-02  0.123E-02
  -4.908  0.127E-02  0.127E-02
  -4.898  0.154E-02  0.154E-02
  -4.888  0.197E-02  0.197E-02
  -4.878  0.251E-02  0.251E-02
  -4.868  0.308E-02  0.308E-02
  -4.858  0.364E-02  0.364E-02
  -4.848  0.413E-02  0.413E-02
  -4.838  0.455E-02  0.455E-02
  -4.828  0.486E-02  0.486E-02
  -4.818  0.506E-02  0.506E-02
  -4.808  0.515E-02  0.515E-02
  -4.798  0.511E-02  0.511E-02
  -4.788  0.495E-02  0.495E-02
  -4.778  0.468E-02  0.468E-02
  -4.768  0.430E-02  0.430E-02
  -4.758  0.386E-02  0.386E-02
  -4.748  0.338E-02  0.338E-02
  -4.738  0.292E-02  0.292E-02
  -4.728  0.252E-02  0.252E-02
  -4.718  0.221E-02  0.221E-02
  -4.708  0.202E-02  0.202E-02
  -4.698  0.193E-02  0.193E-02
  -4.688  0.194E-02  0.194E-02
  -4.678  0.200E-02  0.200E-02
  -4.668  0.209E-02  0.209E-02
  -4.658  0.218E-02  0.218E-02
  -4.648  0.227E-02  0.227E-02
  -4.638  0.235E-02  0.235E-02
  -4.628  0.243E-02  0.243E-02
  -4.618  0.252E-02  0.252E-02
  -4.608  0.263E-02  0.263E-02
  -4.598  0.276E-02  0.276E-02
  -4.588  0.291E-02  0.291E-02
  -4.578  0.306E-02  0.306E-02
  -4.568  0.319E-02  0.319E-02
  -4.558  0.329E-02  0.329E-02
  -4.548  0.333E-02  0.333E-02
  -4.538  0.331E-02  0.331E-02
  -4.528  0.322E-02  0.322E-02
  -4.518  0.305E-02  0.305E-02
  -4.508  0.283E-02  0.283E-02
  -4.498  0.255E-02  0.255E-02
  -4.488  0.226E-02  0.226E-02
  -4.478  0.198E-02  0.198E-02
  -4.468  0.174E-02  0.174E-02
  -4.458  0.157E-02  0.157E-02
  -4.448  0.148E-02  0.148E-02
  -4.438  0.147E-02  0.147E-02
  -4.428  0.152E-02  0.152E-02
  -4.418  0.161E-02  0.161E-02
  -4.408  0.171E-02  0.171E-02
  -4.398  0.179E-02  0.179E-02
  -4.388  0.184E-02  0.184E-02
  -4.378  0.187E-02  0.187E-02
  -4.368  0.188E-02  0.188E-02
  -4.358  0.189E-02  0.189E-02
  -4.348  0.192E-02  0.192E-02
  -4.338  0.198E-02  0.198E-02
  -4.328  0.206E-02  0.206E-02
  -4.318  0.216E-02  0.216E-02
  -4.308  0.224E-02  0.224E-02
  -4.298  0.229E-02  0.229E-02
  -4.288  0.228E-02  0.228E-02
  -4.278  0.219E-02  0.219E-02
  -4.268  0.203E-02  0.203E-02
  -4.258  0.180E-02  0.180E-02
  -4.248  0.154E-02  0.154E-02
  -4.238  0.128E-02  0.128E-02
  -4.228  0.104E-02  0.104E-02
  -4.218  0.868E-03  0.868E-03
  -4.208  0.770E-03  0.770E-03
  -4.198  0.757E-03  0.757E-03
  -4.188  0.826E-03  0.826E-03
  -4.178  0.961E-03  0.961E-03
  -4.168  0.114E-02  0.114E-02
  -4.158  0.132E-02  0.132E-02
  -4.148  0.149E-02  0.149E-02
  -4.138  0.162E-02  0.162E-02
  -4.128  0.170E-02  0.170E-02
  -4.118  0.170E-02  0.170E-02
  -4.108  0.164E-02  0.164E-02
  -4.098  0.153E-02  0.153E-02
  -4.088  0.139E-02  0.139E-02
  -4.078  0.122E-02  0.122E-02
  -4.068  0.105E-02  0.105E-02
  -4.058  0.899E-03  0.899E-03
  -4.048  0.774E-03  0.774E-03
  -4.038  0.685E-03  0.685E-03
  -4.028  0.635E-03  0.635E-03
  -4.018  0.622E-03  0.622E-03
  -4.008  0.642E-03  0.642E-03
  -3.998  0.689E-03  0.689E-03
  -3.988  0.752E-03  0.752E-03
  -3.978  0.822E-03  0.822E-03
  -3.968  0.888E-03  0.888E-03
  -3.958  0.940E-03  0.940E-03
  -3.948  0.968E-03  0.968E-03
  -3.938  0.965E-03  0.965E-03
  -3.928  0.929E-03  0.929E-03
  -3.918  0.863E-03  0.863E-03
  -3.908  0.775E-03  0.775E-03
  -3.898  0.676E-03  0.676E-03
  -3.888  0.579E-03  0.579E-03
  -3.878  0.497E-03  0.497E-03
  -3.868  0.436E-03  0.436E-03
  -3.858  0.402E-03  0.402E-03
  -3.848  0.392E-03  0.392E-03
  -3.838  0.399E-03  0.399E-03
  -3.828  0.417E-03  0.417E-03
  -3.818  0.436E-03  0.436E-03
  -3.808  0.450E-03  0.450E-03
  -3.798  0.452E-03  0.452E-03
  -3.788  0.440E-03  0.440E-03
  -3.778  0.415E-03  0.415E-03
  -3.768  0.380E-03  0.380E-03
  -3.758  0.340E-03  0.340E-03
  -3.748  0.299E-03  0.299E-03
  -3.738  0.263E-03  0.263E-03
  -3.728  0.234E-03  0.234E-03
  -3.718  0.215E-03  0.215E-03
  -3.708  0.202E-03  0.202E-03
  -3.698  0.194E-03  0.194E-03
  -3.688  0.187E-03  0.187E-03
  -3.678  0.178E-03  0.178E-03
  -3.668  0.165E-03  0.165E-03
  -3.658  0.149E-03  0.149E-03
  -3.648  0.129E-03  0.129E-03
  -3.638  0.109E-03  0.109E-03
  -3.628  0.885E-04  0.885E-04
  -3.618  0.705E-04  0.705E-04
  -3.608  0.557E-04  0.557E-04
  -3.598  0.444E-04  0.444E-04
  -3.588  0.362E-04  0.362E-04
  -3.578  0.308E-04  0.308E-04
  -3.568  0.275E-04  0.275E-04
  -3.558  0.259E-04  0.259E-04
  -3.548  0.253E-04  0.253E-04
  -3.538  0.256E-04  0.256E-04
  -3.528  0.265E-04  0.265E-04
  -3.518  0.279E-04  0.279E-04
  -3.508  0.296E-04  0.296E-04
  -3.498  0.316E-04  0.316E-04
  -3.488  0.339E-04  0.339E-04
  -3.478  0.364E-04  0.364E-04
  -3.468  0.392E-04  0.392E-04
  -3.458  0.421E-04  0.421E-04
  -3.448  0.451E-04  0.451E-04
  -3.438  0.481E-04  0.481E-04
  -3.428  0.510E-04  0.510E-04
  -3.418  0.537E-04  0.537E-04
  -3.408  0.560E-04  0.560E-04
  -3.398  0.577E-04  0.577E-04
  -3.388  0.587E-04  0.587E-04
  -3.378  0.588E-04  0.588E-04
  -3.368  0.580E-04  0.580E-04
  -3.358  0.563E-04  0.563E-04
  -3.348  0.539E-04  0.539E-04
  -3.338  0.510E-04  0.510E-04
  -3.328  0.479E-04  0.479E-04
  -3.318  0.448E-04  0.448E-04
  -3.308  0.421E-04  0.421E-04
  -3.298  0.399E-04  0.399E-04
  -3.288  0.384E-04  0.384E-04
  -3.278  0.374E-04  0.374E-04
  -3.268  0.369E-04  0.369E-04
  -3.258  0.368E-04  0.368E-04
  -3.248  0.370E-04  0.370E-04
  -3.238  0.374E-04  0.374E-04
  -3.228  0.382E-04  0.382E-04
  -3.218  0.392E-04  0.392E-04
  -3.208  0.407E-04  0.407E-04
  -3.198  0.426E-04  0.426E-04
  -3.188  0.450E-04  0.450E-04
  -3.178  0.477E-04  0.477E-04
  -3.168  0.504E-04  0.504E-04
  -3.158  0.530E-04  0.530E-04
  -3.148  0.552E-04  0.552E-04
  -3.138  0.567E-04  0.567E-04
  -3.128  0.573E-04  0.573E-04
  -3.118  0.572E-04  0.572E-04
  -3.108  0.562E-04  0.562E-04
  -3.098  0.547E-04  0.547E-04
  -3.088  0.527E-04  0.527E-04
  -3.078  0.506E-04  0.506E-04
  -3.068  0.485E-04  0.485E-04
  -3.058  0.465E-04  0.465E-04
  -3.048  0.447E-04  0.447E-04
  -3.038  0.432E-04  0.432E-04
  -3.028  0.417E-04  0.417E-04
  -3.018  0.403E-04  0.403E-04
  -3.008  0.388E-04  0.388E-04
  -2.998  0.371E-04  0.371E-04
  -2.988  0.351E-04  0.351E-04
  -2.978  0.330E-04  0.330E-04
  -2.968  0.307E-04  0.307E-04
  -2.958  0.286E-04  0.286E-04
  -2.948  0.268E-04  0.268E-04
  -2.938  0.257E-04  0.257E-04
  -2.928  0.254E-04  0.254E-04
  -2.918  0.260E-04  0.260E-04
  -2.908  0.275E-04  0.275E-04
  -2.898  0.296E-04  0.296E-04
  -2.888  0.322E-04  0.322E-04
  -2.878  0.349E-04  0.349E-04
  -2.868  0.375E-04  0.375E-04
  -2.858  0.400E-04  0.400E-04
  -2.848  0.422E-04  0.422E-04
  -2.838  0.442E-04  0.442E-04
  -2.828  0.462E-04  0.462E-04
  -2.818  0.480E-04  0.480E-04
  -2.808  0.497E-04  0.497E-04
  -2.798  0.509E-04  0.509E-04
  -2.788  0.515E-04  0.515E-04
  -2.778  0.512E-04  0.512E-04
  -2.768  0.496E-04  0.496E-04
  -2.758  0.467E-04  0.467E-04
  -2.748  0.425E-04  0.425E-04
  -2.738  0.375E-04  0.375E-04
  -2.728  0.321E-04  0.321E-04
  -2.718  0.269E-04  0.269E-04
  -2.708  0.225E-04  0.225E-04
  -2.698  0.194E-04  0.194E-04
  -2.688  0.179E-04  0.179E-04
  -2.678  0.180E-04  0.180E-04
  -2.668  0.197E-04  0.197E-04
  -2.658  0.225E-04  0.225E-04
  -2.648  0.261E-04  0.261E-04
  -2.638  0.298E-04  0.298E-04
  -2.628  0.330E-04  0.330E-04
  -2.618  0.352E-04  0.352E-04
  -2.608  0.362E-04  0.362E-04
  -2.598  0.357E-04  0.357E-04
  -2.588  0.339E-04  0.339E-04
  -2.578  0.310E-04  0.310E-04
  -2.568  0.275E-04  0.275E-04
  -2.558  0.240E-04  0.240E-04
  -2.548  0.209E-04  0.209E-04
  -2.538  0.185E-04  0.185E-04
  -2.528  0.170E-04  0.170E-04
  -2.518  0.163E-04  0.163E-04
  -2.508  0.162E-04  0.162E-04
  -2.498  0.165E-04  0.165E-04
  -2.488  0.168E-04  0.168E-04
  -2.478  0.169E-04  0.169E-04
  -2.468  0.169E-04  0.169E-04
  -2.458  0.167E-04  0.167E-04
  -2.448  0.163E-04  0.163E-04
  -2.438  0.159E-04  0.159E-04
  -2.428  0.157E-04  0.157E-04
  -2.418  0.157E-04  0.157E-04
  -2.408  0.161E-04  0.161E-04
  -2.398  0.166E-04  0.166E-04
  -2.388  0.173E-04  0.173E-04
  -2.378  0.180E-04  0.180E-04
  -2.368  0.184E-04  0.184E-04
  -2.358  0.185E-04  0.185E-04
  -2.348  0.181E-04  0.181E-04
  -2.338  0.171E-04  0.171E-04
  -2.328  0.158E-04  0.158E-04
  -2.318  0.143E-04  0.143E-04
  -2.308  0.127E-04  0.127E-04
  -2.298  0.113E-04  0.113E-04
  -2.288  0.102E-04  0.102E-04
  -2.278  0.944E-05  0.944E-05
  -2.268  0.910E-05  0.910E-05
  -2.258  0.911E-05  0.911E-05
  -2.248  0.938E-05  0.938E-05
  -2.238  0.983E-05  0.983E-05
  -2.228  0.104E-04  0.104E-04
  -2.218  0.110E-04  0.110E-04
  -2.208  0.115E-04  0.115E-04
  -2.198  0.120E-04  0.120E-04
  -2.188  0.124E-04  0.124E-04
  -2.178  0.127E-04  0.127E-04
  -2.168  0.127E-04  0.127E-04
  -2.158  0.126E-04  0.126E-04
  -2.148  0.123E-04  0.123E-04
  -2.138  0.119E-04  0.119E-04
  -2.128  0.114E-04  0.114E-04
  -2.118  0.109E-04  0.109E-04
  -2.108  0.104E-04  0.104E-04
  -2.098  0.100E-04  0.100E-04
  -2.088  0.959E-05  0.959E-05
  -2.078  0.915E-05  0.915E-05
  -2.068  0.867E-05  0.867E-05
  -2.058  0.812E-05  0.812E-05
  -2.048  0.752E-05  0.752E-05
  -2.038  0.691E-05  0.691E-05
  -2.028  0.633E-05  0.633E-05
  -2.018  0.583E-05  0.583E-05
  -2.008  0.547E-05  0.547E-05
  -1.998  0.528E-05  0.528E-05
  -1.988  0.525E-05  0.525E-05
  -1.978  0.539E-05  0.539E-05
  -1.968  0.566E-05  0.566E-05
  -1.958  0.603E-05  0.603E-05
  -1.948  0.647E-05  0.647E-05
  -1.938  0.693E-05  0.693E-05
  -1.928  0.735E-05  0.735E-05
  -1.918  0.771E-05  0.771E-05
  -1.908  0.796E-05  0.796E-05
  -1.898  0.808E-05  0.808E-05
  -1.888  0.809E-05  0.809E-05
  -1.878  0.798E-05  0.798E-05
  -1.868  0.778E-05  0.778E-05
  -1.858  0.753E-05  0.753E-05
  -1.848  0.724E-05  0.724E-05
  -1.838  0.692E-05  0.692E-05
  -1.828  0.656E-05  0.656E-05
  -1.818  0.616E-05  0.616E-05
  -1.808  0.570E-05  0.570E-05
  -1.798  0.517E-05  0.517E-05
  -1.788  0.462E-05  0.462E-05
  -1.778  0.406E-05  0.406E-05
  -1.768  0.356E-05  0.356E-05
  -1.758  0.316E-05  0.316E-05
  -1.748  0.289E-05  0.289E-05
  -1.738  0.275E-05  0.275E-05
  -1.728  0.272E-05  0.272E-05
  -1.718  0.278E-05  0.278E-05
  -1.708  0.289E-05  0.289E-05
  -1.698  0.304E-05  0.304E-05
  -1.688  0.321E-05  0.321E-05
  -1.678  0.342E-05  0.342E-05
  -1.668  0.369E-05  0.369E-05
  -1.658  0.401E-05  0.401E-05
  -1.648  0.439E-05  0.439E-05
  -1.638  0.479E-05  0.479E-05
  -1.628  0.515E-05  0.515E-05
  -1.618  0.543E-05  0.543E-05
  -1.608  0.555E-05  0.555E-05
  -1.598  0.550E-05  0.550E-05
  -1.588  0.525E-05  0.525E-05
  -1.578  0.482E-05  0.482E-05
  -1.568  0.426E-05  0.426E-05
  -1.558  0.364E-05  0.364E-05
  -1.548  0.301E-05  0.301E-05
  -1.538  0.245E-05  0.245E-05
  -1.528  0.200E-05  0.200E-05
  -1.518  0.169E-05  0.169E-05
  -1.508  0.152E-05  0.152E-05
  -1.498  0.148E-05  0.148E-05
  -1.488  0.154E-05  0.154E-05
  -1.478  0.166E-05  0.166E-05
  -1.468  0.181E-05  0.181E-05
  -1.458  0.195E-05  0.195E-05
  -1.448  0.206E-05  0.206E-05
  -1.438  0.213E-05  0.213E-05
  -1.428  0.216E-05  0.216E-05
  -1.418  0.217E-05  0.217E-05
  -1.408  0.216E-05  0.216E-05
  -1.398  0.215E-05  0.215E-05
  -1.388  0.216E-05  0.216E-05
  -1.378  0.219E-05  0.219E-05
  -1.368  0.224E-05  0.224E-05
  -1.358  0.230E-05  0.230E-05
  -1.348  0.237E-05  0.237E-05
  -1.338  0.242E-05  0.242E-05
  -1.328  0.246E-05  0.246E-05
  -1.318  0.245E-05  0.245E-05
  -1.308  0.240E-05  0.240E-05
  -1.298  0.231E-05  0.231E-05
  -1.288  0.217E-05  0.217E-05
  -1.278  0.199E-05  0.199E-05
  -1.268  0.178E-05  0.178E-05
  -1.258  0.156E-05  0.156E-05
  -1.248  0.133E-05  0.133E-05
  -1.238  0.111E-05  0.111E-05
  -1.228  0.905E-06  0.905E-06
  -1.218  0.727E-06  0.727E-06
  -1.208  0.585E-06  0.585E-06
  -1.198  0.489E-06  0.489E-06
  -1.188  0.444E-06  0.444E-06
  -1.178  0.453E-06  0.453E-06
  -1.168  0.513E-06  0.513E-06
  -1.158  0.619E-06  0.619E-06
  -1.148  0.760E-06  0.760E-06
  -1.138  0.924E-06  0.924E-06
  -1.128  0.110E-05  0.110E-05
  -1.118  0.127E-05  0.127E-05
  -1.108  0.142E-05  0.142E-05
  -1.098  0.154E-05  0.154E-05
  -1.088  0.162E-05  0.162E-05
  -1.078  0.164E-05  0.164E-05
  -1.068  0.158E-05  0.158E-05
  -1.058  0.146E-05  0.146E-05
  -1.048  0.127E-05  0.127E-05
  -1.038  0.104E-05  0.104E-05
  -1.028  0.780E-06  0.780E-06
  -1.018  0.528E-06  0.528E-06
  -1.008  0.306E-06  0.306E-06
  -0.998  0.136E-06  0.136E-06
  -0.988  0.288E-07  0.288E-07
  -0.978 -0.137E-07 -0.137E-07
  -0.968  0.175E-08  0.175E-08
  -0.958  0.624E-07  0.624E-07
  -0.948  0.152E-06  0.152E-06
  -0.938  0.255E-06  0.255E-06
  -0.928  0.355E-06  0.355E-06
  -0.918  0.441E-06  0.441E-06
  -0.908  0.504E-06  0.504E-06
  -0.898  0.539E-06  0.539E-06
  -0.888  0.546E-06  0.546E-06
  -0.878  0.528E-06  0.528E-06
  -0.868  0.489E-06  0.489E-06
  -0.858  0.436E-06  0.436E-06
  -0.848  0.375E-06  0.375E-06
  -0.838  0.311E-06  0.311E-06
  -0.828  0.247E-06  0.247E-06
  -0.818  0.188E-06  0.188E-06
  -0.808  0.135E-06  0.135E-06
  -0.798  0.892E-07  0.892E-07
  -0.788  0.524E-07  0.524E-07
  -0.778  0.259E-07  0.259E-07
  -0.768  0.105E-07  0.105E-07
  -0.758  0.665E-08  0.665E-08
  -0.748  0.136E-07  0.136E-07
  -0.738  0.297E-07  0.297E-07
  -0.728  0.522E-07  0.522E-07
  -0.718  0.776E-07  0.776E-07
  -0.708  0.102E-06  0.102E-06
  -0.698  0.122E-06  0.122E-06
  -0.688  0.134E-06  0.134E-06
  -0.678  0.136E-06  0.136E-06
  -0.668  0.129E-06  0.129E-06
  -0.658  0.112E-06  0.112E-06
  -0.648  0.900E-07  0.900E-07
  -0.638  0.646E-07  0.646E-07
  -0.628  0.395E-07  0.395E-07
  -0.618  0.176E-07  0.176E-07
  -0.608  0.705E-09  0.705E-09
  -0.598 -0.106E-07 -0.106E-07
  -0.588 -0.166E-07 -0.166E-07
  -0.578 -0.184E-07 -0.184E-07
  -0.568 -0.172E-07 -0.172E-07
  -0.558 -0.143E-07 -0.143E-07
  -0.548 -0.109E-07 -0.109E-07
  -0.538 -0.737E-08 -0.737E-08
  -0.528 -0.415E-08 -0.415E-08
  -0.518 -0.118E-08 -0.118E-08
  -0.508  0.180E-08  0.180E-08
  -0.498  0.511E-08  0.511E-08
  -0.488  0.911E-08  0.911E-08
  -0.478  0.141E-07  0.141E-07
  -0.468  0.202E-07  0.202E-07
  -0.458  0.273E-07  0.273E-07
  -0.448  0.350E-07  0.350E-07
  -0.438  0.427E-07  0.427E-07
  -0.428  0.493E-07  0.493E-07
  -0.418  0.541E-07  0.541E-07
  -0.408  0.560E-07  0.560E-07
  -0.398  0.547E-07  0.547E-07
  -0.388  0.501E-07  0.501E-07
  -0.378  0.428E-07  0.428E-07
  -0.368  0.336E-07  0.336E-07
  -0.358  0.238E-07  0.238E-07
  -0.348  0.146E-07  0.146E-07
  -0.338  0.716E-08  0.716E-08
  -0.328  0.211E-08  0.211E-08
  -0.318 -0.200E-09 -0.200E-09
  -0.308  0.217E-09  0.217E-09
  -0.298  0.313E-08  0.313E-08
  -0.288  0.817E-08  0.817E-08
  -0.278  0.150E-07  0.150E-07
  -0.268  0.232E-07  0.232E-07
  -0.258  0.326E-07  0.326E-07
  -0.248  0.428E-07  0.428E-07
  -0.238  0.535E-07  0.535E-07
  -0.228  0.644E-07  0.644E-07
  -0.218  0.749E-07  0.749E-07
  -0.208  0.846E-07  0.846E-07
  -0.198  0.926E-07  0.926E-07
  -0.188  0.983E-07  0.983E-07
  -0.178  0.101E-06  0.101E-06
  -0.168  0.101E-06  0.101E-06
  -0.158  0.985E-07  0.985E-07
  -0.148  0.940E-07  0.940E-07
  -0.138  0.894E-07  0.894E-07
  -0.128  0.866E-07  0.866E-07
  -0.118  0.877E-07  0.877E-07
  -0.108  0.941E-07  0.941E-07
  -0.098  0.106E-06  0.106E-06
  -0.088  0.123E-06  0.123E-06
  -0.078  0.143E-06  0.143E-06
  -0.068  0.162E-06  0.162E-06
  -0.058  0.176E-06  0.176E-06
  -0.048  0.184E-06  0.184E-06
  -0.038  0.182E-06  0.182E-06
  -0.028  0.172E-06  0.172E-06
  -0.018  0.154E-06  0.154E-06
  -0.008  0.132E-06  0.132E-06
   0.002  0.109E-06  0.109E-06
   0.012  0.895E-07  0.895E-07
   0.022  0.747E-07  0.747E-07
   0.032  0.657E-07  0.657E-07
   0.042  0.621E-07  0.621E-07
   0.052  0.626E-07  0.626E-07
   0.062  0.655E-07  0.655E-07
   0.072  0.694E-07  0.694E-07
   0.082  0.736E-07  0.736E-07
   0.092  0.779E-07  0.779E-07
   0.102  0.825E-07  0.825E-07
   0.112  0.880E-07  0.880E-07
   0.122  0.945E-07  0.945E-07
   0.132  0.102E-06  0.102E-06
   0.142  0.109E-06  0.109E-06
   0.152  0.115E-06  0.115E-06
   0.162  0.119E-06  0.119E-06
   0.172  0.120E-06  0.120E-06
   0.182  0.117E-06  0.117E-06
   0.192  0.110E-06  0.110E-06
   0.202  0.102E-06  0.102E-06
   0.212  0.912E-07  0.912E-07
   0.222  0.802E-07  0.802E-07
   0.232  0.693E-07  0.693E-07
   0.242  0.590E-07  0.590E-07
   0.252  0.493E-07  0.493E-07
   0.262  0.403E-07  0.403E-07
   0.272  0.324E-07  0.324E-07
   0.282  0.258E-07  0.258E-07
   0.292  0.212E-07  0.212E-07
   0.302  0.191E-07  0.191E-07
   0.312  0.197E-07  0.197E-07
   0.322  0.231E-07  0.231E-07
   0.332  0.289E-07  0.289E-07
   0.342  0.364E-07  0.364E-07
   0.352  0.449E-07  0.449E-07
   0.362  0.533E-07  0.533E-07
   0.372  0.607E-07  0.607E-07
   0.382  0.664E-07  0.664E-07
   0.392  0.700E-07  0.700E-07
   0.402  0.710E-07  0.710E-07
   0.412  0.696E-07  0.696E-07
   0.422  0.660E-07  0.660E-07
   0.432  0.608E-07  0.608E-07
   0.442  0.548E-07  0.548E-07
   0.452  0.488E-07  0.488E-07
   0.462  0.440E-07  0.440E-07
   0.472  0.410E-07  0.410E-07
   0.482  0.405E-07  0.405E-07
   0.492  0.429E-07  0.429E-07
   0.502  0.482E-07  0.482E-07
   0.512  0.559E-07  0.559E-07
   0.522  0.653E-07  0.653E-07
   0.532  0.755E-07  0.755E-07
   0.542  0.853E-07  0.853E-07
   0.552  0.938E-07  0.938E-07
   0.562  0.100E-06  0.100E-06
   0.572  0.105E-06  0.105E-06
   0.582  0.107E-06  0.107E-06
   0.592  0.108E-06  0.108E-06
   0.602  0.109E-06  0.109E-06
   0.612  0.109E-06  0.109E-06
   0.622  0.110E-06  0.110E-06
   0.632  0.112E-06  0.112E-06
   0.642  0.115E-06  0.115E-06
   0.652  0.118E-06  0.118E-06
   0.662  0.123E-06  0.123E-06
   0.672  0.127E-06  0.127E-06
   0.682  0.131E-06  0.131E-06
   0.692  0.135E-06  0.135E-06
   0.702  0.138E-06  0.138E-06
   0.712  0.141E-06  0.141E-06
   0.722  0.146E-06  0.146E-06
   0.732  0.152E-06  0.152E-06
   0.742  0.164E-06  0.164E-06
   0.752  0.183E-06  0.183E-06
   0.762  0.212E-06  0.212E-06
   0.772  0.255E-06  0.255E-06
   0.782  0.312E-06  0.312E-06
   0.792  0.382E-06  0.382E-06
   0.802  0.464E-06  0.464E-06
   0.812  0.553E-06  0.553E-06
   0.822  0.642E-06  0.642E-06
   0.832  0.725E-06  0.725E-06
   0.842  0.800E-06  0.800E-06
   0.852  0.867E-06  0.867E-06
   0.862  0.930E-06  0.930E-06
   0.872  0.998E-06  0.998E-06
   0.882  0.108E-05  0.108E-05
   0.892  0.119E-05  0.119E-05
   0.902  0.134E-05  0.134E-05
   0.912  0.152E-05  0.152E-05
   0.922  0.174E-05  0.174E-05
   0.932  0.197E-05  0.197E-05
   0.942  0.220E-05  0.220E-05
   0.952  0.241E-05  0.241E-05
   0.962  0.258E-05  0.258E-05
   0.972  0.270E-05  0.270E-05
   0.982  0.277E-05  0.277E-05
   0.992  0.278E-05  0.278E-05
   1.002  0.275E-05  0.275E-05
   1.012  0.269E-05  0.269E-05
   1.022  0.264E-05  0.264E-05
   1.032  0.259E-05  0.259E-05
   1.042  0.258E-05  0.258E-05
   1.052  0.261E-05  0.261E-05
   1.062  0.268E-05  0.268E-05
   1.072  0.278E-05  0.278E-05
   1.082  0.289E-05  0.289E-05
   1.092  0.301E-05  0.301E-05
   1.102  0.310E-05  0.310E-05
   1.112  0.315E-05  0.315E-05
   1.122  0.315E-05  0.315E-05
   1.132  0.311E-05  0.311E-05
   1.142  0.303E-05  0.303E-05
   1.152  0.295E-05  0.295E-05
   1.162  0.289E-05  0.289E-05
   1.172  0.287E-05  0.287E-05
   1.182  0.291E-05  0.291E-05
   1.192  0.301E-05  0.301E-05
   1.202  0.316E-05  0.316E-05
   1.212  0.335E-05  0.335E-05
   1.222  0.355E-05  0.355E-05
   1.232  0.377E-05  0.377E-05
   1.242  0.399E-05  0.399E-05
   1.252  0.424E-05  0.424E-05
   1.262  0.453E-05  0.453E-05
   1.272  0.489E-05  0.489E-05
   1.282  0.533E-05  0.533E-05
   1.292  0.583E-05  0.583E-05
   1.302  0.637E-05  0.637E-05
   1.312  0.691E-05  0.691E-05
   1.322  0.738E-05  0.738E-05
   1.332  0.775E-05  0.775E-05
   1.342  0.798E-05  0.798E-05
   1.352  0.807E-05  0.807E-05
   1.362  0.803E-05  0.803E-05
   1.372  0.789E-05  0.789E-05
   1.382  0.769E-05  0.769E-05
   1.392  0.750E-05  0.750E-05
   1.402  0.732E-05  0.732E-05
   1.412  0.719E-05  0.719E-05
   1.422  0.709E-05  0.709E-05
   1.432  0.700E-05  0.700E-05
   1.442  0.689E-05  0.689E-05
   1.452  0.675E-05  0.675E-05
   1.462  0.654E-05  0.654E-05
   1.472  0.626E-05  0.626E-05
   1.482  0.594E-05  0.594E-05
   1.492  0.561E-05  0.561E-05
   1.502  0.531E-05  0.531E-05
   1.512  0.509E-05  0.509E-05
   1.522  0.498E-05  0.498E-05
   1.532  0.499E-05  0.499E-05
   1.542  0.512E-05  0.512E-05
   1.552  0.533E-05  0.533E-05
   1.562  0.558E-05  0.558E-05
   1.572  0.582E-05  0.582E-05
   1.582  0.600E-05  0.600E-05
   1.592  0.609E-05  0.609E-05
   1.602  0.609E-05  0.609E-05
   1.612  0.601E-05  0.601E-05
   1.622  0.590E-05  0.590E-05
   1.632  0.578E-05  0.578E-05
   1.642  0.569E-05  0.569E-05
   1.652  0.567E-05  0.567E-05
   1.662  0.572E-05  0.572E-05
   1.672  0.585E-05  0.585E-05
   1.682  0.603E-05  0.603E-05
   1.692  0.627E-05  0.627E-05
   1.702  0.652E-05  0.652E-05
   1.712  0.678E-05  0.678E-05
   1.722  0.702E-05  0.702E-05
   1.732  0.722E-05  0.722E-05
   1.742  0.736E-05  0.736E-05
   1.752  0.743E-05  0.743E-05
   1.762  0.740E-05  0.740E-05
   1.772  0.727E-05  0.727E-05
   1.782  0.707E-05  0.707E-05
   1.792  0.680E-05  0.680E-05
   1.802  0.650E-05  0.650E-05
   1.812  0.620E-05  0.620E-05
   1.822  0.591E-05  0.591E-05
   1.832  0.566E-05  0.566E-05
   1.842  0.545E-05  0.545E-05
   1.852  0.530E-05  0.530E-05
   1.862  0.520E-05  0.520E-05
   1.872  0.520E-05  0.520E-05
   1.882  0.531E-05  0.531E-05
   1.892  0.555E-05  0.555E-05
   1.902  0.592E-05  0.592E-05
   1.912  0.641E-05  0.641E-05
   1.922  0.697E-05  0.697E-05
   1.932  0.752E-05  0.752E-05
   1.942  0.799E-05  0.799E-05
   1.952  0.829E-05  0.829E-05
   1.962  0.837E-05  0.837E-05
   1.972  0.823E-05  0.823E-05
   1.982  0.789E-05  0.789E-05
   1.992  0.743E-05  0.743E-05
   2.002  0.694E-05  0.694E-05
   2.012  0.652E-05  0.652E-05
   2.022  0.628E-05  0.628E-05
   2.032  0.626E-05  0.626E-05
   2.042  0.650E-05  0.650E-05
   2.052  0.698E-05  0.698E-05
   2.062  0.762E-05  0.762E-05
   2.072  0.834E-05  0.834E-05
   2.082  0.903E-05  0.903E-05
   2.092  0.960E-05  0.960E-05
   2.102  0.996E-05  0.996E-05
   2.112  0.101E-04  0.101E-04
   2.122  0.989E-05  0.989E-05
   2.132  0.945E-05  0.945E-05
   2.142  0.880E-05  0.880E-05
   2.152  0.800E-05  0.800E-05
   2.162  0.714E-05  0.714E-05
   2.172  0.633E-05  0.633E-05
   2.182  0.563E-05  0.563E-05
   2.192  0.513E-05  0.513E-05
   2.202  0.485E-05  0.485E-05
   2.212  0.483E-05  0.483E-05
   2.222  0.506E-05  0.506E-05
   2.232  0.553E-05  0.553E-05
   2.242  0.623E-05  0.623E-05
   2.252  0.711E-05  0.711E-05
   2.262  0.811E-05  0.811E-05
   2.272  0.916E-05  0.916E-05
   2.282  0.102E-04  0.102E-04
   2.292  0.110E-04  0.110E-04
   2.302  0.117E-04  0.117E-04
   2.312  0.120E-04  0.120E-04
   2.322  0.119E-04  0.119E-04
   2.332  0.115E-04  0.115E-04
   2.342  0.108E-04  0.108E-04
   2.352  0.100E-04  0.100E-04
   2.362  0.914E-05  0.914E-05
   2.372  0.839E-05  0.839E-05
   2.382  0.785E-05  0.785E-05
   2.392  0.758E-05  0.758E-05
   2.402  0.757E-05  0.757E-05
   2.412  0.782E-05  0.782E-05
   2.422  0.826E-05  0.826E-05
   2.432  0.888E-05  0.888E-05
   2.442  0.967E-05  0.967E-05
   2.452  0.107E-04  0.107E-04
   2.462  0.121E-04  0.121E-04
   2.472  0.142E-04  0.142E-04
   2.482  0.174E-04  0.174E-04
   2.492  0.221E-04  0.221E-04
   2.502  0.291E-04  0.291E-04
   2.512  0.394E-04  0.394E-04
   2.522  0.538E-04  0.538E-04
   2.532  0.732E-04  0.732E-04
   2.542  0.982E-04  0.982E-04
   2.552  0.129E-03  0.129E-03
   2.562  0.164E-03  0.164E-03
   2.572  0.203E-03  0.203E-03
   2.582  0.243E-03  0.243E-03
   2.592  0.281E-03  0.281E-03
   2.602  0.316E-03  0.316E-03
   2.612  0.343E-03  0.343E-03
   2.622  0.362E-03  0.362E-03
   2.632  0.372E-03  0.372E-03
   2.642  0.373E-03  0.373E-03
   2.652  0.367E-03  0.367E-03
   2.662  0.356E-03  0.356E-03
   2.672  0.341E-03  0.341E-03
   2.682  0.324E-03  0.324E-03
   2.692  0.307E-03  0.307E-03
   2.702  0.290E-03  0.290E-03
   2.712  0.274E-03  0.274E-03
   2.722  0.260E-03  0.260E-03
   2.732  0.247E-03  0.247E-03
   2.742  0.235E-03  0.235E-03
   2.752  0.223E-03  0.223E-03
   2.762  0.213E-03  0.213E-03
   2.772  0.203E-03  0.203E-03
   2.782  0.193E-03  0.193E-03
   2.792  0.185E-03  0.185E-03
   2.802  0.177E-03  0.177E-03
   2.812  0.170E-03  0.170E-03
   2.822  0.164E-03  0.164E-03
   2.832  0.158E-03  0.158E-03
   2.842  0.152E-03  0.152E-03
   2.852  0.147E-03  0.147E-03
   2.862  0.142E-03  0.142E-03
   2.872  0.137E-03  0.137E-03
   2.882  0.132E-03  0.132E-03
   2.892  0.128E-03  0.128E-03
   2.902  0.124E-03  0.124E-03
   2.912  0.121E-03  0.121E-03
   2.922  0.118E-03  0.118E-03
   2.932  0.115E-03  0.115E-03
   2.942  0.112E-03  0.112E-03
   2.952  0.110E-03  0.110E-03
   2.962  0.109E-03  0.109E-03
   2.972  0.110E-03  0.110E-03
   2.982  0.113E-03  0.113E-03
   2.992  0.118E-03  0.118E-03
   3.002  0.125E-03  0.125E-03
   3.012  0.131E-03  0.131E-03
   3.022  0.137E-03  0.137E-03
   3.032  0.141E-03  0.141E-03
   3.042  0.143E-03  0.143E-03
   3.052  0.142E-03  0.142E-03
   3.062  0.139E-03  0.139E-03
   3.072  0.134E-03  0.134E-03
   3.082  0.128E-03  0.128E-03
   3.092  0.123E-03  0.123E-03
   3.102  0.117E-03  0.117E-03
   3.112  0.111E-03  0.111E-03
   3.122  0.106E-03  0.106E-03
   3.132  0.101E-03  0.101E-03
   3.142  0.963E-04  0.963E-04
   3.152  0.910E-04  0.910E-04
   3.162  0.855E-04  0.855E-04
   3.172  0.798E-04  0.798E-04
   3.182  0.742E-04  0.742E-04
   3.192  0.691E-04  0.691E-04
   3.202  0.646E-04  0.646E-04
   3.212  0.611E-04  0.611E-04
   3.222  0.587E-04  0.587E-04
   3.232  0.572E-04  0.572E-04
   3.242  0.565E-04  0.565E-04
   3.252  0.561E-04  0.561E-04
   3.262  0.557E-04  0.557E-04
   3.272  0.549E-04  0.549E-04
   3.282  0.536E-04  0.536E-04
   3.292  0.516E-04  0.516E-04
   3.302  0.492E-04  0.492E-04
   3.312  0.465E-04  0.465E-04
   3.322  0.439E-04  0.439E-04
   3.332  0.415E-04  0.415E-04
   3.342  0.396E-04  0.396E-04
   3.352  0.382E-04  0.382E-04
   3.362  0.372E-04  0.372E-04
   3.372  0.366E-04  0.366E-04
   3.382  0.362E-04  0.362E-04
   3.392  0.360E-04  0.360E-04
   3.402  0.357E-04  0.357E-04
   3.412  0.353E-04  0.353E-04
   3.422  0.346E-04  0.346E-04
   3.432  0.336E-04  0.336E-04
   3.442  0.323E-04  0.323E-04
   3.452  0.306E-04  0.306E-04
   3.462  0.286E-04  0.286E-04
   3.472  0.264E-04  0.264E-04
   3.482  0.243E-04  0.243E-04
   3.492  0.223E-04  0.223E-04
   3.502  0.206E-04  0.206E-04
   3.512  0.193E-04  0.193E-04
   3.522  0.186E-04  0.186E-04
   3.532  0.182E-04  0.182E-04
   3.542  0.183E-04  0.183E-04
   3.552  0.186E-04  0.186E-04
   3.562  0.191E-04  0.191E-04
   3.572  0.195E-04  0.195E-04
   3.582  0.198E-04  0.198E-04
   3.592  0.199E-04  0.199E-04
   3.602  0.198E-04  0.198E-04
   3.612  0.195E-04  0.195E-04
   3.622  0.192E-04  0.192E-04
   3.632  0.190E-04  0.190E-04
   3.642  0.190E-04  0.190E-04
   3.652  0.194E-04  0.194E-04
   3.662  0.202E-04  0.202E-04
   3.672  0.213E-04  0.213E-04
   3.682  0.225E-04  0.225E-04
   3.692  0.237E-04  0.237E-04
   3.702  0.248E-04  0.248E-04
   3.712  0.254E-04  0.254E-04
   3.722  0.256E-04  0.256E-04
   3.732  0.254E-04  0.254E-04
   3.742  0.247E-04  0.247E-04
   3.752  0.239E-04  0.239E-04
   3.762  0.230E-04  0.230E-04
   3.772  0.222E-04  0.222E-04
   3.782  0.218E-04  0.218E-04
   3.792  0.218E-04  0.218E-04
   3.802  0.223E-04  0.223E-04
   3.812  0.232E-04  0.232E-04
   3.822  0.243E-04  0.243E-04
   3.832  0.254E-04  0.254E-04
   3.842  0.264E-04  0.264E-04
   3.852  0.271E-04  0.271E-04
   3.862  0.273E-04  0.273E-04
   3.872  0.270E-04  0.270E-04
   3.882  0.264E-04  0.264E-04
   3.892  0.255E-04  0.255E-04
   3.902  0.245E-04  0.245E-04
   3.912  0.237E-04  0.237E-04
   3.922  0.232E-04  0.232E-04
   3.932  0.231E-04  0.231E-04
   3.942  0.233E-04  0.233E-04
   3.952  0.238E-04  0.238E-04
   3.962  0.246E-04  0.246E-04
   3.972  0.256E-04  0.256E-04
   3.982  0.268E-04  0.268E-04
   3.992  0.285E-04  0.285E-04
   4.002  0.308E-04  0.308E-04
   4.012  0.340E-04  0.340E-04
   4.022  0.384E-04  0.384E-04
   4.032  0.443E-04  0.443E-04
   4.042  0.517E-04  0.517E-04
   4.052  0.603E-04  0.603E-04
   4.062  0.699E-04  0.699E-04
   4.072  0.798E-04  0.798E-04
   4.082  0.893E-04  0.893E-04
   4.092  0.976E-04  0.976E-04
   4.102  0.104E-03  0.104E-03
   4.112  0.108E-03  0.108E-03
   4.122  0.110E-03  0.110E-03
   4.132  0.110E-03  0.110E-03
   4.142  0.107E-03  0.107E-03
   4.152  0.103E-03  0.103E-03
   4.162  0.972E-04  0.972E-04
   4.172  0.912E-04  0.912E-04
   4.182  0.851E-04  0.851E-04
   4.192  0.795E-04  0.795E-04
   4.202  0.748E-04  0.748E-04
   4.212  0.715E-04  0.715E-04
   4.222  0.697E-04  0.697E-04
   4.232  0.696E-04  0.696E-04
   4.242  0.709E-04  0.709E-04
   4.252  0.734E-04  0.734E-04
   4.262  0.764E-04  0.764E-04
   4.272  0.796E-04  0.796E-04
   4.282  0.823E-04  0.823E-04
   4.292  0.843E-04  0.843E-04
   4.302  0.853E-04  0.853E-04
   4.312  0.851E-04  0.851E-04
   4.322  0.839E-04  0.839E-04
   4.332  0.819E-04  0.819E-04
   4.342  0.792E-04  0.792E-04
   4.352  0.762E-04  0.762E-04
   4.362  0.733E-04  0.733E-04
   4.372  0.708E-04  0.708E-04
   4.382  0.689E-04  0.689E-04
   4.392  0.676E-04  0.676E-04
   4.402  0.668E-04  0.668E-04
   4.412  0.664E-04  0.664E-04
   4.422  0.663E-04  0.663E-04
   4.432  0.663E-04  0.663E-04
   4.442  0.665E-04  0.665E-04
   4.452  0.670E-04  0.670E-04
   4.462  0.682E-04  0.682E-04
   4.472  0.702E-04  0.702E-04
   4.482  0.729E-04  0.729E-04
   4.492  0.762E-04  0.762E-04
   4.502  0.798E-04  0.798E-04
   4.512  0.831E-04  0.831E-04
   4.522  0.855E-04  0.855E-04
   4.532  0.867E-04  0.867E-04
   4.542  0.863E-04  0.863E-04
   4.552  0.844E-04  0.844E-04
   4.562  0.811E-04  0.811E-04
   4.572  0.766E-04  0.766E-04
   4.582  0.713E-04  0.713E-04
   4.592  0.657E-04  0.657E-04
   4.602  0.600E-04  0.600E-04
   4.612  0.549E-04  0.549E-04
   4.622  0.506E-04  0.506E-04
   4.632  0.475E-04  0.475E-04
   4.642  0.458E-04  0.458E-04
   4.652  0.459E-04  0.459E-04
   4.662  0.476E-04  0.476E-04
   4.672  0.507E-04  0.507E-04
   4.682  0.550E-04  0.550E-04
   4.692  0.599E-04  0.599E-04
   4.702  0.649E-04  0.649E-04
   4.712  0.697E-04  0.697E-04
   4.722  0.738E-04  0.738E-04
   4.732  0.770E-04  0.770E-04
   4.742  0.793E-04  0.793E-04
   4.752  0.806E-04  0.806E-04
   4.762  0.810E-04  0.810E-04
   4.772  0.807E-04  0.807E-04
   4.782  0.799E-04  0.799E-04
   4.792  0.787E-04  0.787E-04
   4.802  0.771E-04  0.771E-04
   4.812  0.753E-04  0.753E-04
   4.822  0.732E-04  0.732E-04
   4.832  0.707E-04  0.707E-04
   4.842  0.680E-04  0.680E-04
   4.852  0.649E-04  0.649E-04
   4.862  0.617E-04  0.617E-04
   4.872  0.587E-04  0.587E-04
   4.882  0.562E-04  0.562E-04
   4.892  0.545E-04  0.545E-04
   4.902  0.539E-04  0.539E-04
   4.912  0.547E-04  0.547E-04
   4.922  0.569E-04  0.569E-04
   4.932  0.602E-04  0.602E-04
   4.942  0.644E-04  0.644E-04
   4.952  0.689E-04  0.689E-04
   4.962  0.734E-04  0.734E-04
   4.972  0.772E-04  0.772E-04
   4.982  0.799E-04  0.799E-04
   4.992  0.812E-04  0.812E-04
   5.002  0.810E-04  0.810E-04
   5.012  0.792E-04  0.792E-04
   5.022  0.761E-04  0.761E-04
   5.032  0.719E-04  0.719E-04
   5.042  0.671E-04  0.671E-04
   5.052  0.621E-04  0.621E-04
   5.062  0.575E-04  0.575E-04
   5.072  0.539E-04  0.539E-04
   5.082  0.517E-04  0.517E-04
   5.092  0.512E-04  0.512E-04
   5.102  0.524E-04  0.524E-04
   5.112  0.552E-04  0.552E-04
   5.122  0.594E-04  0.594E-04
   5.132  0.644E-04  0.644E-04
   5.142  0.699E-04  0.699E-04
   5.152  0.756E-04  0.756E-04
   5.162  0.813E-04  0.813E-04
   5.172  0.869E-04  0.869E-04
   5.182  0.926E-04  0.926E-04
   5.192  0.983E-04  0.983E-04
   5.202  0.104E-03  0.104E-03
   5.212  0.109E-03  0.109E-03
   5.222  0.114E-03  0.114E-03
   5.232  0.117E-03  0.117E-03
   5.242  0.118E-03  0.118E-03
   5.252  0.118E-03  0.118E-03
   5.262  0.115E-03  0.115E-03
   5.272  0.109E-03  0.109E-03
   5.282  0.103E-03  0.103E-03
   5.292  0.947E-04  0.947E-04
   5.302  0.866E-04  0.866E-04
   5.312  0.792E-04  0.792E-04
   5.322  0.734E-04  0.734E-04
   5.332  0.697E-04  0.697E-04
   5.342  0.686E-04  0.686E-04
   5.352  0.700E-04  0.700E-04
   5.362  0.738E-04  0.738E-04
   5.372  0.790E-04  0.790E-04
   5.382  0.849E-04  0.849E-04
   5.392  0.903E-04  0.903E-04
   5.402  0.944E-04  0.944E-04
   5.412  0.965E-04  0.965E-04
   5.422  0.965E-04  0.965E-04
   5.432  0.944E-04  0.944E-04
   5.442  0.908E-04  0.908E-04
   5.452  0.863E-04  0.863E-04
   5.462  0.818E-04  0.818E-04
   5.472  0.777E-04  0.777E-04
   5.482  0.744E-04  0.744E-04
   5.492  0.722E-04  0.722E-04
   5.502  0.709E-04  0.709E-04
   5.512  0.703E-04  0.703E-04
   5.522  0.704E-04  0.704E-04
   5.532  0.709E-04  0.709E-04
   5.542  0.717E-04  0.717E-04
   5.552  0.729E-04  0.729E-04
   5.562  0.746E-04  0.746E-04
   5.572  0.771E-04  0.771E-04
   5.582  0.809E-04  0.809E-04
   5.592  0.867E-04  0.867E-04
   5.602  0.953E-04  0.953E-04
   5.612  0.108E-03  0.108E-03
   5.622  0.124E-03  0.124E-03
   5.632  0.145E-03  0.145E-03
   5.642  0.171E-03  0.171E-03
   5.652  0.200E-03  0.200E-03
   5.662  0.231E-03  0.231E-03
   5.672  0.263E-03  0.263E-03
   5.682  0.294E-03  0.294E-03
   5.692  0.321E-03  0.321E-03
   5.702  0.343E-03  0.343E-03
   5.712  0.360E-03  0.360E-03
   5.722  0.371E-03  0.371E-03
   5.732  0.377E-03  0.377E-03
   5.742  0.378E-03  0.378E-03
   5.752  0.376E-03  0.376E-03
   5.762  0.373E-03  0.373E-03
   5.772  0.370E-03  0.370E-03
   5.782  0.369E-03  0.369E-03
   5.792  0.370E-03  0.370E-03
   5.802  0.373E-03  0.373E-03
   5.812  0.378E-03  0.378E-03
   5.822  0.383E-03  0.383E-03
   5.832  0.388E-03  0.388E-03
   5.842  0.391E-03  0.391E-03
   5.852  0.392E-03  0.392E-03
   5.862  0.391E-03  0.391E-03
   5.872  0.389E-03  0.389E-03
   5.882  0.388E-03  0.388E-03
   5.892  0.388E-03  0.388E-03
   5.902  0.390E-03  0.390E-03
   5.912  0.395E-03  0.395E-03
   5.922  0.401E-03  0.401E-03
   5.932  0.407E-03  0.407E-03
   5.942  0.412E-03  0.412E-03
   5.952  0.413E-03  0.413E-03
   5.962  0.409E-03  0.409E-03
   5.972  0.401E-03  0.401E-03
   5.982  0.388E-03  0.388E-03
   5.992  0.374E-03  0.374E-03
   6.002  0.359E-03  0.359E-03
   6.012  0.347E-03  0.347E-03
   6.022  0.340E-03  0.340E-03
   6.032  0.339E-03  0.339E-03
   6.042  0.345E-03  0.345E-03
   6.052  0.357E-03  0.357E-03
   6.062  0.373E-03  0.373E-03
   6.072  0.389E-03  0.389E-03
   6.082  0.404E-03  0.404E-03
   6.092  0.414E-03  0.414E-03
   6.102  0.418E-03  0.418E-03
   6.112  0.415E-03  0.415E-03
   6.122  0.407E-03  0.407E-03
   6.132  0.395E-03  0.395E-03
   6.142  0.383E-03  0.383E-03
   6.152  0.373E-03  0.373E-03
   6.162  0.368E-03  0.368E-03
   6.172  0.370E-03  0.370E-03
   6.182  0.378E-03  0.378E-03
   6.192  0.393E-03  0.393E-03
   6.202  0.412E-03  0.412E-03
   6.212  0.434E-03  0.434E-03
   6.222  0.457E-03  0.457E-03
   6.232  0.479E-03  0.479E-03
   6.242  0.498E-03  0.498E-03
   6.252  0.514E-03  0.514E-03
   6.262  0.525E-03  0.525E-03
   6.272  0.531E-03  0.531E-03
   6.282  0.532E-03  0.532E-03
   6.292  0.528E-03  0.528E-03
   6.302  0.520E-03  0.520E-03
   6.312  0.509E-03  0.509E-03
   6.322  0.499E-03  0.499E-03
   6.332  0.492E-03  0.492E-03
   6.342  0.490E-03  0.490E-03
   6.352  0.495E-03  0.495E-03
   6.362  0.508E-03  0.508E-03
   6.372  0.530E-03  0.530E-03
   6.382  0.559E-03  0.559E-03
   6.392  0.594E-03  0.594E-03
   6.402  0.631E-03  0.631E-03
   6.412  0.665E-03  0.665E-03
   6.422  0.691E-03  0.691E-03
   6.432  0.706E-03  0.706E-03
   6.442  0.708E-03  0.708E-03
   6.452  0.696E-03  0.696E-03
   6.462  0.674E-03  0.674E-03
   6.472  0.646E-03  0.646E-03
   6.482  0.619E-03  0.619E-03
   6.492  0.601E-03  0.601E-03
   6.502  0.596E-03  0.596E-03
   6.512  0.611E-03  0.611E-03
   6.522  0.644E-03  0.644E-03
   6.532  0.696E-03  0.696E-03
   6.542  0.762E-03  0.762E-03
   6.552  0.835E-03  0.835E-03
   6.562  0.911E-03  0.911E-03
   6.572  0.982E-03  0.982E-03
   6.582  0.104E-02  0.104E-02
   6.592  0.109E-02  0.109E-02
   6.602  0.113E-02  0.113E-02
   6.612  0.115E-02  0.115E-02
   6.622  0.116E-02  0.116E-02
   6.632  0.118E-02  0.118E-02
   6.642  0.123E-02  0.123E-02
   6.652  0.134E-02  0.134E-02
   6.662  0.156E-02  0.156E-02
   6.672  0.197E-02  0.197E-02
   6.682  0.266E-02  0.266E-02
   6.692  0.379E-02  0.379E-02
   6.702  0.552E-02  0.552E-02
   6.712  0.807E-02  0.807E-02
   6.722  0.116E-01  0.116E-01
   6.732  0.164E-01  0.164E-01
   6.742  0.224E-01  0.224E-01
   6.752  0.296E-01  0.296E-01
   6.762  0.379E-01  0.379E-01
   6.772  0.469E-01  0.469E-01
   6.782  0.560E-01  0.560E-01
   6.792  0.647E-01  0.647E-01
   6.802  0.724E-01  0.724E-01
   6.812  0.788E-01  0.788E-01
   6.822  0.835E-01  0.835E-01
   6.832  0.867E-01  0.867E-01
   6.842  0.888E-01  0.888E-01
   6.852  0.901E-01  0.901E-01
   6.862  0.911E-01  0.911E-01
   6.872  0.922E-01  0.922E-01
   6.882  0.934E-01  0.934E-01
   6.892  0.946E-01  0.946E-01
   6.902  0.954E-01  0.954E-01
   6.912  0.955E-01  0.955E-01
   6.922  0.949E-01  0.949E-01
   6.932  0.935E-01  0.935E-01
   6.942  0.920E-01  0.920E-01
   6.952  0.911E-01  0.911E-01
   6.962  0.920E-01  0.920E-01
   6.972  0.953E-01  0.953E-01
   6.982  0.102E+00  0.102E+00
   6.992  0.112E+00  0.112E+00
   7.002  0.124E+00  0.124E+00
   7.012  0.138E+00  0.138E+00
   7.022  0.153E+00  0.153E+00
   7.032  0.166E+00  0.166E+00
   7.042  0.177E+00  0.177E+00
   7.052  0.185E+00  0.185E+00
   7.062  0.189E+00  0.189E+00
   7.072  0.190E+00  0.190E+00
   7.082  0.189E+00  0.189E+00
   7.092  0.186E+00  0.186E+00
   7.102  0.182E+00  0.182E+00
   7.112  0.178E+00  0.178E+00
   7.122  0.174E+00  0.174E+00
   7.132  0.169E+00  0.169E+00
   7.142  0.164E+00  0.164E+00
   7.152  0.158E+00  0.158E+00
   7.162  0.152E+00  0.152E+00
   7.172  0.146E+00  0.146E+00
   7.182  0.141E+00  0.141E+00
   7.192  0.138E+00  0.138E+00
   7.202  0.138E+00  0.138E+00
   7.212  0.141E+00  0.141E+00
   7.222  0.148E+00  0.148E+00
   7.232  0.157E+00  0.157E+00
   7.242  0.167E+00  0.167E+00
   7.252  0.178E+00  0.178E+00
   7.262  0.188E+00  0.188E+00
   7.272  0.197E+00  0.197E+00
   7.282  0.202E+00  0.202E+00
   7.292  0.205E+00  0.205E+00
   7.302  0.205E+00  0.205E+00
   7.312  0.201E+00  0.201E+00
   7.322  0.196E+00  0.196E+00
   7.332  0.188E+00  0.188E+00
   7.342  0.179E+00  0.179E+00
   7.352  0.169E+00  0.169E+00
   7.362  0.158E+00  0.158E+00
   7.372  0.147E+00  0.147E+00
   7.382  0.137E+00  0.137E+00
   7.392  0.129E+00  0.129E+00
   7.402  0.124E+00  0.124E+00
   7.412  0.123E+00  0.123E+00
   7.422  0.126E+00  0.126E+00
   7.432  0.134E+00  0.134E+00
   7.442  0.146E+00  0.146E+00
   7.452  0.161E+00  0.161E+00
   7.462  0.179E+00  0.179E+00
   7.472  0.197E+00  0.197E+00
   7.482  0.213E+00  0.213E+00
   7.492  0.226E+00  0.226E+00
   7.502  0.235E+00  0.235E+00
   7.512  0.238E+00  0.238E+00
   7.522  0.236E+00  0.236E+00
   7.532  0.227E+00  0.227E+00
   7.542  0.214E+00  0.214E+00
   7.552  0.197E+00  0.197E+00
   7.562  0.177E+00  0.177E+00
   7.572  0.157E+00  0.157E+00
   7.582  0.137E+00  0.137E+00
   7.592  0.119E+00  0.119E+00
   7.602  0.105E+00  0.105E+00
   7.612  0.951E-01  0.951E-01
   7.622  0.898E-01  0.898E-01
   7.632  0.893E-01  0.893E-01
   7.642  0.930E-01  0.930E-01
   7.652  0.100E+00  0.100E+00
   7.662  0.110E+00  0.110E+00
   7.672  0.121E+00  0.121E+00
   7.682  0.132E+00  0.132E+00
   7.692  0.144E+00  0.144E+00
   7.702  0.155E+00  0.155E+00
   7.712  0.165E+00  0.165E+00
   7.722  0.174E+00  0.174E+00
   7.732  0.182E+00  0.182E+00
   7.742  0.188E+00  0.188E+00
   7.752  0.192E+00  0.192E+00
   7.762  0.193E+00  0.193E+00
   7.772  0.191E+00  0.191E+00
   7.782  0.185E+00  0.185E+00
   7.792  0.178E+00  0.178E+00
   7.802  0.169E+00  0.169E+00
   7.812  0.159E+00  0.159E+00
   7.822  0.151E+00  0.151E+00
   7.832  0.144E+00  0.144E+00
   7.842  0.139E+00  0.139E+00
   7.852  0.137E+00  0.137E+00
   7.862  0.137E+00  0.137E+00
   7.872  0.139E+00  0.139E+00
   7.882  0.142E+00  0.142E+00
   7.892  0.145E+00  0.145E+00
   7.902  0.148E+00  0.148E+00
   7.912  0.149E+00  0.149E+00
   7.922  0.150E+00  0.150E+00
   7.932  0.149E+00  0.149E+00
   7.942  0.147E+00  0.147E+00
   7.952  0.144E+00  0.144E+00
   7.962  0.142E+00  0.142E+00
   7.972  0.140E+00  0.140E+00
   7.982  0.140E+00  0.140E+00
   7.992  0.140E+00  0.140E+00
   8.002  0.142E+00  0.142E+00
   8.012  0.146E+00  0.146E+00
   8.022  0.150E+00  0.150E+00
   8.032  0.155E+00  0.155E+00
   8.042  0.159E+00  0.159E+00
   8.052  0.163E+00  0.163E+00
   8.062  0.165E+00  0.165E+00
   8.072  0.165E+00  0.165E+00
   8.082  0.164E+00  0.164E+00
   8.092  0.160E+00  0.160E+00
   8.102  0.156E+00  0.156E+00
   8.112  0.150E+00  0.150E+00
   8.122  0.143E+00  0.143E+00
   8.132  0.136E+00  0.136E+00
   8.142  0.129E+00  0.129E+00
   8.152  0.121E+00  0.121E+00
   8.162  0.114E+00  0.114E+00
   8.172  0.107E+00  0.107E+00
   8.182  0.101E+00  0.101E+00
   8.192  0.939E-01  0.939E-01
   8.202  0.874E-01  0.874E-01
   8.212  0.808E-01  0.808E-01
   8.222  0.743E-01  0.743E-01
   8.232  0.683E-01  0.683E-01
   8.242  0.631E-01  0.631E-01
   8.252  0.594E-01  0.594E-01
   8.262  0.577E-01  0.577E-01
   8.272  0.585E-01  0.585E-01
   8.282  0.622E-01  0.622E-01
   8.292  0.685E-01  0.685E-01
   8.302  0.771E-01  0.771E-01
   8.312  0.871E-01  0.871E-01
   8.322  0.976E-01  0.976E-01
   8.332  0.107E+00  0.107E+00
   8.342  0.115E+00  0.115E+00
   8.352  0.121E+00  0.121E+00
   8.362  0.123E+00  0.123E+00
   8.372  0.122E+00  0.122E+00
   8.382  0.118E+00  0.118E+00
   8.392  0.112E+00  0.112E+00
   8.402  0.106E+00  0.106E+00
   8.412  0.994E-01  0.994E-01
   8.422  0.946E-01  0.946E-01
   8.432  0.919E-01  0.919E-01
   8.442  0.915E-01  0.915E-01
   8.452  0.929E-01  0.929E-01
   8.462  0.955E-01  0.955E-01
   8.472  0.980E-01  0.980E-01
   8.482  0.993E-01  0.993E-01
   8.492  0.983E-01  0.983E-01
   8.502  0.944E-01  0.944E-01
   8.512  0.877E-01  0.877E-01
   8.522  0.785E-01  0.785E-01
   8.532  0.678E-01  0.678E-01
   8.542  0.567E-01  0.567E-01
   8.552  0.465E-01  0.465E-01
   8.562  0.383E-01  0.383E-01
   8.572  0.329E-01  0.329E-01
   8.582  0.309E-01  0.309E-01
   8.592  0.321E-01  0.321E-01
   8.602  0.362E-01  0.362E-01
   8.612  0.424E-01  0.424E-01
   8.622  0.498E-01  0.498E-01
   8.632  0.575E-01  0.575E-01
   8.642  0.647E-01  0.647E-01
   8.652  0.707E-01  0.707E-01
   8.662  0.754E-01  0.754E-01
   8.672  0.788E-01  0.788E-01
   8.682  0.812E-01  0.812E-01
   8.692  0.831E-01  0.831E-01
   8.702  0.847E-01  0.847E-01
   8.712  0.861E-01  0.861E-01
   8.722  0.872E-01  0.872E-01
   8.732  0.875E-01  0.875E-01
   8.742  0.867E-01  0.867E-01
   8.752  0.844E-01  0.844E-01
   8.762  0.808E-01  0.808E-01
   8.772  0.763E-01  0.763E-01
   8.782  0.716E-01  0.716E-01
   8.792  0.676E-01  0.676E-01
   8.802  0.651E-01  0.651E-01
   8.812  0.645E-01  0.645E-01
   8.822  0.657E-01  0.657E-01
   8.832  0.682E-01  0.682E-01
   8.842  0.709E-01  0.709E-01
   8.852  0.730E-01  0.730E-01
   8.862  0.737E-01  0.737E-01
   8.872  0.723E-01  0.723E-01
   8.882  0.691E-01  0.691E-01
   8.892  0.645E-01  0.645E-01
   8.902  0.593E-01  0.593E-01
   8.912  0.546E-01  0.546E-01
   8.922  0.512E-01  0.512E-01
   8.932  0.495E-01  0.495E-01
   8.942  0.498E-01  0.498E-01
   8.952  0.517E-01  0.517E-01
   8.962  0.544E-01  0.544E-01
   8.972  0.572E-01  0.572E-01
   8.982  0.593E-01  0.593E-01
   8.992  0.600E-01  0.600E-01
   9.002  0.590E-01  0.590E-01
   9.012  0.564E-01  0.564E-01
   9.022  0.526E-01  0.526E-01
   9.032  0.481E-01  0.481E-01
   9.042  0.436E-01  0.436E-01
   9.052  0.399E-01  0.399E-01
   9.062  0.376E-01  0.376E-01
   9.072  0.372E-01  0.372E-01
   9.082  0.389E-01  0.389E-01
   9.092  0.423E-01  0.423E-01
   9.102  0.471E-01  0.471E-01
   9.112  0.524E-01  0.524E-01
   9.122  0.573E-01  0.573E-01
   9.132  0.610E-01  0.610E-01
   9.142  0.630E-01  0.630E-01
   9.152  0.632E-01  0.632E-01
   9.162  0.618E-01  0.618E-01
   9.172  0.598E-01  0.598E-01
   9.182  0.579E-01  0.579E-01
   9.192  0.571E-01  0.571E-01
   9.202  0.582E-01  0.582E-01
   9.212  0.612E-01  0.612E-01
   9.222  0.658E-01  0.658E-01
   9.232  0.712E-01  0.712E-01
   9.242  0.763E-01  0.763E-01
   9.252  0.803E-01  0.803E-01
   9.262  0.822E-01  0.822E-01
   9.272  0.818E-01  0.818E-01
   9.282  0.792E-01  0.792E-01
   9.292  0.747E-01  0.747E-01
   9.302  0.690E-01  0.690E-01
   9.312  0.627E-01  0.627E-01
   9.322  0.563E-01  0.563E-01
   9.332  0.502E-01  0.502E-01
   9.342  0.446E-01  0.446E-01
   9.352  0.397E-01  0.397E-01
   9.362  0.354E-01  0.354E-01
   9.372  0.318E-01  0.318E-01
   9.382  0.289E-01  0.289E-01
   9.392  0.269E-01  0.269E-01
   9.402  0.255E-01  0.255E-01
   9.412  0.247E-01  0.247E-01
   9.422  0.243E-01  0.243E-01
   9.432  0.242E-01  0.242E-01
   9.442  0.245E-01  0.245E-01
   9.452  0.250E-01  0.250E-01
   9.462  0.260E-01  0.260E-01
   9.472  0.275E-01  0.275E-01
   9.482  0.295E-01  0.295E-01
   9.492  0.320E-01  0.320E-01
   9.502  0.349E-01  0.349E-01
   9.512  0.380E-01  0.380E-01
   9.522  0.411E-01  0.411E-01
   9.532  0.442E-01  0.442E-01
   9.542  0.472E-01  0.472E-01
   9.552  0.503E-01  0.503E-01
   9.562  0.535E-01  0.535E-01
   9.572  0.572E-01  0.572E-01
   9.582  0.616E-01  0.616E-01
   9.592  0.666E-01  0.666E-01
   9.602  0.722E-01  0.722E-01
   9.612  0.779E-01  0.779E-01
   9.622  0.831E-01  0.831E-01
   9.632  0.868E-01  0.868E-01
   9.642  0.883E-01  0.883E-01
   9.652  0.869E-01  0.869E-01
   9.662  0.824E-01  0.824E-01
   9.672  0.751E-01  0.751E-01
   9.682  0.656E-01  0.656E-01
   9.692  0.550E-01  0.550E-01
   9.702  0.442E-01  0.442E-01
   9.712  0.344E-01  0.344E-01
   9.722  0.263E-01  0.263E-01
   9.732  0.202E-01  0.202E-01
   9.742  0.164E-01  0.164E-01
   9.752  0.147E-01  0.147E-01
   9.762  0.148E-01  0.148E-01
   9.772  0.163E-01  0.163E-01
   9.782  0.188E-01  0.188E-01
   9.792  0.218E-01  0.218E-01
   9.802  0.249E-01  0.249E-01
   9.812  0.278E-01  0.278E-01
   9.822  0.301E-01  0.301E-01
   9.832  0.316E-01  0.316E-01
   9.842  0.324E-01  0.324E-01
   9.852  0.324E-01  0.324E-01
   9.862  0.317E-01  0.317E-01
   9.872  0.304E-01  0.304E-01
   9.882  0.290E-01  0.290E-01
   9.892  0.276E-01  0.276E-01
   9.902  0.266E-01  0.266E-01
   9.912  0.263E-01  0.263E-01
   9.922  0.272E-01  0.272E-01
   9.932  0.295E-01  0.295E-01
   9.942  0.334E-01  0.334E-01
   9.952  0.388E-01  0.388E-01
   9.962  0.455E-01  0.455E-01
   9.972  0.530E-01  0.530E-01
   9.982  0.606E-01  0.606E-01
   9.992  0.677E-01  0.677E-01
  10.002  0.735E-01  0.735E-01
  10.012  0.771E-01  0.771E-01
  10.022  0.782E-01  0.782E-01
  10.032  0.763E-01  0.763E-01
  10.042  0.718E-01  0.718E-01
  10.052  0.648E-01  0.648E-01
  10.062  0.562E-01  0.562E-01
  10.072  0.469E-01  0.469E-01
  10.082  0.378E-01  0.378E-01
  10.092  0.297E-01  0.297E-01
  10.102  0.233E-01  0.233E-01
  10.112  0.188E-01  0.188E-01
  10.122  0.163E-01  0.163E-01
  10.132  0.155E-01  0.155E-01
  10.142  0.160E-01  0.160E-01
  10.152  0.174E-01  0.174E-01
  10.162  0.195E-01  0.195E-01
  10.172  0.220E-01  0.220E-01
  10.182  0.246E-01  0.246E-01
  10.192  0.272E-01  0.272E-01
  10.202  0.297E-01  0.297E-01
  10.212  0.317E-01  0.317E-01
  10.222  0.333E-01  0.333E-01
  10.232  0.342E-01  0.342E-01
  10.242  0.345E-01  0.345E-01
  10.252  0.343E-01  0.343E-01
  10.262  0.338E-01  0.338E-01
  10.272  0.331E-01  0.331E-01
  10.282  0.324E-01  0.324E-01
  10.292  0.320E-01  0.320E-01
  10.302  0.318E-01  0.318E-01
  10.312  0.319E-01  0.319E-01
  10.322  0.323E-01  0.323E-01
  10.332  0.332E-01  0.332E-01
  10.342  0.344E-01  0.344E-01
  10.352  0.361E-01  0.361E-01
  10.362  0.381E-01  0.381E-01
  10.372  0.403E-01  0.403E-01
  10.382  0.425E-01  0.425E-01
  10.392  0.444E-01  0.444E-01
  10.402  0.455E-01  0.455E-01
  10.412  0.457E-01  0.457E-01
  10.422  0.447E-01  0.447E-01
  10.432  0.425E-01  0.425E-01
  10.442  0.391E-01  0.391E-01
  10.452  0.348E-01  0.348E-01
  10.462  0.301E-01  0.301E-01
  10.472  0.252E-01  0.252E-01
  10.482  0.207E-01  0.207E-01
  10.492  0.169E-01  0.169E-01
  10.502  0.139E-01  0.139E-01
  10.512  0.119E-01  0.119E-01
  10.522  0.108E-01  0.108E-01
  10.532  0.106E-01  0.106E-01
  10.542  0.111E-01  0.111E-01
  10.552  0.124E-01  0.124E-01
  10.562  0.143E-01  0.143E-01
  10.572  0.168E-01  0.168E-01
  10.582  0.201E-01  0.201E-01
  10.592  0.239E-01  0.239E-01
  10.602  0.283E-01  0.283E-01
  10.612  0.329E-01  0.329E-01
  10.622  0.375E-01  0.375E-01
  10.632  0.418E-01  0.418E-01
  10.642  0.452E-01  0.452E-01
  10.652  0.475E-01  0.475E-01
  10.662  0.483E-01  0.483E-01
  10.672  0.477E-01  0.477E-01
  10.682  0.457E-01  0.457E-01
  10.692  0.426E-01  0.426E-01
  10.702  0.389E-01  0.389E-01
  10.712  0.350E-01  0.350E-01
  10.722  0.314E-01  0.314E-01
  10.732  0.286E-01  0.286E-01
  10.742  0.268E-01  0.268E-01
  10.752  0.262E-01  0.262E-01
  10.762  0.267E-01  0.267E-01
  10.772  0.281E-01  0.281E-01
  10.782  0.301E-01  0.301E-01
  10.792  0.323E-01  0.323E-01
  10.802  0.344E-01  0.344E-01
  10.812  0.359E-01  0.359E-01
  10.822  0.367E-01  0.367E-01
  10.832  0.365E-01  0.365E-01
  10.842  0.355E-01  0.355E-01
  10.852  0.336E-01  0.336E-01
  10.862  0.311E-01  0.311E-01
  10.872  0.281E-01  0.281E-01
  10.882  0.249E-01  0.249E-01
  10.892  0.217E-01  0.217E-01
  10.902  0.188E-01  0.188E-01
  10.912  0.163E-01  0.163E-01
  10.922  0.145E-01  0.145E-01
  10.932  0.134E-01  0.134E-01
  10.942  0.134E-01  0.134E-01
  10.952  0.145E-01  0.145E-01
  10.962  0.169E-01  0.169E-01
  10.972  0.204E-01  0.204E-01
  10.982  0.250E-01  0.250E-01
  10.992  0.304E-01  0.304E-01
  11.002  0.362E-01  0.362E-01
  11.012  0.418E-01  0.418E-01
  11.022  0.470E-01  0.470E-01
  11.032  0.513E-01  0.513E-01
  11.042  0.546E-01  0.546E-01
  11.052  0.568E-01  0.568E-01
  11.062  0.581E-01  0.581E-01
  11.072  0.584E-01  0.584E-01
  11.082  0.579E-01  0.579E-01
  11.092  0.565E-01  0.565E-01
  11.102  0.543E-01  0.543E-01
  11.112  0.511E-01  0.511E-01
  11.122  0.470E-01  0.470E-01
  11.132  0.422E-01  0.422E-01
  11.142  0.371E-01  0.371E-01
  11.152  0.320E-01  0.320E-01
  11.162  0.275E-01  0.275E-01
  11.172  0.239E-01  0.239E-01
  11.182  0.212E-01  0.212E-01
  11.192  0.195E-01  0.195E-01
  11.202  0.186E-01  0.186E-01
  11.212  0.182E-01  0.182E-01
  11.222  0.179E-01  0.179E-01
  11.232  0.177E-01  0.177E-01
  11.242  0.171E-01  0.171E-01
  11.252  0.163E-01  0.163E-01
  11.262  0.151E-01  0.151E-01
  11.272  0.138E-01  0.138E-01
  11.282  0.124E-01  0.124E-01
  11.292  0.111E-01  0.111E-01
  11.302  0.102E-01  0.102E-01
  11.312  0.993E-02  0.993E-02
  11.322  0.103E-01  0.103E-01
  11.332  0.114E-01  0.114E-01
  11.342  0.132E-01  0.132E-01
  11.352  0.156E-01  0.156E-01
  11.362  0.184E-01  0.184E-01
  11.372  0.213E-01  0.213E-01
  11.382  0.242E-01  0.242E-01
  11.392  0.267E-01  0.267E-01
  11.402  0.288E-01  0.288E-01
  11.412  0.304E-01  0.304E-01
  11.422  0.316E-01  0.316E-01
  11.432  0.327E-01  0.327E-01
  11.442  0.340E-01  0.340E-01
  11.452  0.357E-01  0.357E-01
  11.462  0.381E-01  0.381E-01
  11.472  0.411E-01  0.411E-01
  11.482  0.444E-01  0.444E-01
  11.492  0.474E-01  0.474E-01
  11.502  0.495E-01  0.495E-01
  11.512  0.501E-01  0.501E-01
  11.522  0.488E-01  0.488E-01
  11.532  0.455E-01  0.455E-01
  11.542  0.406E-01  0.406E-01
  11.552  0.345E-01  0.345E-01
  11.562  0.281E-01  0.281E-01
  11.572  0.222E-01  0.222E-01
  11.582  0.174E-01  0.174E-01
  11.592  0.142E-01  0.142E-01
  11.602  0.126E-01  0.126E-01
  11.612  0.126E-01  0.126E-01
  11.622  0.139E-01  0.139E-01
  11.632  0.161E-01  0.161E-01
  11.642  0.189E-01  0.189E-01
  11.652  0.217E-01  0.217E-01
  11.662  0.244E-01  0.244E-01
  11.672  0.268E-01  0.268E-01
  11.682  0.286E-01  0.286E-01
  11.692  0.299E-01  0.299E-01
  11.702  0.307E-01  0.307E-01
  11.712  0.308E-01  0.308E-01
  11.722  0.305E-01  0.305E-01
  11.732  0.297E-01  0.297E-01
  11.742  0.286E-01  0.286E-01
  11.752  0.273E-01  0.273E-01
  11.762  0.259E-01  0.259E-01
  11.772  0.247E-01  0.247E-01
  11.782  0.239E-01  0.239E-01
  11.792  0.235E-01  0.235E-01
  11.802  0.238E-01  0.238E-01
  11.812  0.247E-01  0.247E-01
  11.822  0.262E-01  0.262E-01
  11.832  0.282E-01  0.282E-01
  11.842  0.307E-01  0.307E-01
  11.852  0.334E-01  0.334E-01
  11.862  0.360E-01  0.360E-01
  11.872  0.382E-01  0.382E-01
  11.882  0.399E-01  0.399E-01
  11.892  0.407E-01  0.407E-01
  11.902  0.406E-01  0.406E-01
  11.912  0.396E-01  0.396E-01
  11.922  0.379E-01  0.379E-01
  11.932  0.359E-01  0.359E-01
  11.942  0.339E-01  0.339E-01
  11.952  0.321E-01  0.321E-01
  11.962  0.307E-01  0.307E-01
  11.972  0.298E-01  0.298E-01
  11.982  0.292E-01  0.292E-01
  11.992  0.291E-01  0.291E-01
  12.002  0.293E-01  0.293E-01
  12.012  0.299E-01  0.299E-01
  12.022  0.309E-01  0.309E-01
  12.032  0.323E-01  0.323E-01
  12.042  0.340E-01  0.340E-01
  12.052  0.357E-01  0.357E-01
  12.062  0.372E-01  0.372E-01
  12.072  0.381E-01  0.381E-01
  12.082  0.380E-01  0.380E-01
  12.092  0.368E-01  0.368E-01
  12.102  0.344E-01  0.344E-01
  12.112  0.308E-01  0.308E-01
  12.122  0.264E-01  0.264E-01
  12.132  0.214E-01  0.214E-01
  12.142  0.163E-01  0.163E-01
  12.152  0.115E-01  0.115E-01
  12.162  0.732E-02  0.732E-02
  12.172  0.400E-02  0.400E-02
  12.182  0.168E-02  0.168E-02
  12.192  0.353E-03  0.353E-03
  12.202 -0.673E-04 -0.673E-04
  12.212  0.265E-03  0.265E-03
  12.222  0.117E-02  0.117E-02
  12.232  0.246E-02  0.246E-02
  12.242  0.397E-02  0.397E-02
  12.252  0.559E-02  0.559E-02
  12.262  0.720E-02  0.720E-02
  12.272  0.870E-02  0.870E-02
  12.282  0.100E-01  0.100E-01
  12.292  0.111E-01  0.111E-01
  12.302  0.119E-01  0.119E-01
  12.312  0.124E-01  0.124E-01
  12.322  0.125E-01  0.125E-01
  12.332  0.123E-01  0.123E-01
  12.342  0.118E-01  0.118E-01
  12.352  0.110E-01  0.110E-01
  12.362  0.101E-01  0.101E-01
  12.372  0.897E-02  0.897E-02
  12.382  0.780E-02  0.780E-02
  12.392  0.662E-02  0.662E-02
  12.402  0.546E-02  0.546E-02
  12.412  0.436E-02  0.436E-02
  12.422  0.335E-02  0.335E-02
  12.432  0.245E-02  0.245E-02
  12.442  0.166E-02  0.166E-02
  12.452  0.100E-02  0.100E-02
  12.462  0.488E-03  0.488E-03
  12.472  0.126E-03  0.126E-03
  12.482 -0.662E-04 -0.662E-04
  12.492 -0.769E-04 -0.769E-04
  12.502  0.106E-03  0.106E-03
  12.512  0.488E-03  0.488E-03
  12.522  0.107E-02  0.107E-02
  12.532  0.183E-02  0.183E-02
  12.542  0.274E-02  0.274E-02
  12.552  0.374E-02  0.374E-02
  12.562  0.475E-02  0.475E-02
  12.572  0.568E-02  0.568E-02
  12.582  0.645E-02  0.645E-02
  12.592  0.698E-02  0.698E-02
  12.602  0.725E-02  0.725E-02
  12.612  0.726E-02  0.726E-02
  12.622  0.708E-02  0.708E-02
  12.632  0.679E-02  0.679E-02
  12.642  0.647E-02  0.647E-02
  12.652  0.618E-02  0.618E-02
  12.662  0.594E-02  0.594E-02
  12.672  0.573E-02  0.573E-02
  12.682  0.547E-02  0.547E-02
  12.692  0.512E-02  0.512E-02
  12.702  0.464E-02  0.464E-02
  12.712  0.404E-02  0.404E-02
  12.722  0.339E-02  0.339E-02
  12.732  0.276E-02  0.276E-02
  12.742  0.226E-02  0.226E-02
  12.752  0.195E-02  0.195E-02
  12.762  0.187E-02  0.187E-02
  12.772  0.200E-02  0.200E-02
  12.782  0.231E-02  0.231E-02
  12.792  0.270E-02  0.270E-02
  12.802  0.312E-02  0.312E-02
  12.812  0.350E-02  0.350E-02
  12.822  0.384E-02  0.384E-02
  12.832  0.415E-02  0.415E-02
  12.842  0.446E-02  0.446E-02
  12.852  0.480E-02  0.480E-02
  12.862  0.518E-02  0.518E-02
  12.872  0.556E-02  0.556E-02
  12.882  0.590E-02  0.590E-02
  12.892  0.609E-02  0.609E-02
  12.902  0.607E-02  0.607E-02
  12.912  0.580E-02  0.580E-02
  12.922  0.526E-02  0.526E-02
  12.932  0.452E-02  0.452E-02
  12.942  0.366E-02  0.366E-02
  12.952  0.279E-02  0.279E-02
  12.962  0.198E-02  0.198E-02
  12.972  0.131E-02  0.131E-02
  12.982  0.801E-03  0.801E-03
  12.992  0.439E-03  0.439E-03
  13.002  0.197E-03  0.197E-03
  13.012  0.393E-04  0.393E-04
  13.022 -0.659E-04 -0.659E-04
  13.032 -0.139E-03 -0.139E-03
  13.042 -0.190E-03 -0.190E-03
  13.052 -0.221E-03 -0.221E-03
  13.062 -0.234E-03 -0.234E-03
  13.072 -0.228E-03 -0.228E-03
  13.082 -0.207E-03 -0.207E-03
  13.092 -0.176E-03 -0.176E-03
  13.102 -0.140E-03 -0.140E-03
  13.112 -0.105E-03 -0.105E-03
  13.122 -0.747E-04 -0.747E-04
  13.132 -0.501E-04 -0.501E-04
  13.142 -0.318E-04 -0.318E-04
  13.152 -0.192E-04 -0.192E-04
  13.162 -0.110E-04 -0.110E-04
  13.172 -0.599E-05 -0.599E-05
