# E (eV)   ldos(E)   pdos(E)   
 -20.380  0.675E-07  0.675E-07
 -20.370  0.198E-06  0.198E-06
 -20.360  0.554E-06  0.554E-06
 -20.350  0.149E-05  0.149E-05
 -20.340  0.383E-05  0.383E-05
 -20.330  0.946E-05  0.946E-05
 -20.320  0.224E-04  0.224E-04
 -20.310  0.507E-04  0.507E-04
 -20.300  0.110E-03  0.110E-03
 -20.290  0.229E-03  0.229E-03
 -20.280  0.458E-03  0.458E-03
 -20.270  0.876E-03  0.876E-03
 -20.260  0.161E-02  0.161E-02
 -20.250  0.283E-02  0.283E-02
 -20.240  0.478E-02  0.478E-02
 -20.230  0.774E-02  0.774E-02
 -20.220  0.120E-01  0.120E-01
 -20.210  0.180E-01  0.180E-01
 -20.200  0.258E-01  0.258E-01
 -20.190  0.357E-01  0.357E-01
 -20.180  0.474E-01  0.474E-01
 -20.170  0.606E-01  0.606E-01
 -20.160  0.748E-01  0.748E-01
 -20.150  0.890E-01  0.890E-01
 -20.140  0.103E+00  0.103E+00
 -20.130  0.115E+00  0.115E+00
 -20.120  0.124E+00  0.124E+00
 -20.110  0.131E+00  0.131E+00
 -20.100  0.136E+00  0.136E+00
 -20.090  0.138E+00  0.138E+00
 -20.080  0.138E+00  0.138E+00
 -20.070  0.137E+00  0.137E+00
 -20.060  0.135E+00  0.135E+00
 -20.050  0.132E+00  0.132E+00
 -20.040  0.130E+00  0.130E+00
 -20.030  0.127E+00  0.127E+00
 -20.020  0.126E+00  0.126E+00
 -20.010  0.124E+00  0.124E+00
 -20.000  0.124E+00  0.124E+00
 -19.990  0.123E+00  0.123E+00
 -19.980  0.123E+00  0.123E+00
 -19.970  0.124E+00  0.124E+00
 -19.960  0.125E+00  0.125E+00
 -19.950  0.127E+00  0.127E+00
 -19.940  0.129E+00  0.129E+00
 -19.930  0.131E+00  0.131E+00
 -19.920  0.133E+00  0.133E+00
 -19.910  0.136E+00  0.136E+00
 -19.900  0.138E+00  0.138E+00
 -19.890  0.139E+00  0.139E+00
 -19.880  0.141E+00  0.141E+00
 -19.870  0.141E+00  0.141E+00
 -19.860  0.142E+00  0.142E+00
 -19.850  0.142E+00  0.142E+00
 -19.840  0.141E+00  0.141E+00
 -19.830  0.140E+00  0.140E+00
 -19.820  0.139E+00  0.139E+00
 -19.810  0.139E+00  0.139E+00
 -19.800  0.138E+00  0.138E+00
 -19.790  0.137E+00  0.137E+00
 -19.780  0.137E+00  0.137E+00
 -19.770  0.137E+00  0.137E+00
 -19.760  0.136E+00  0.136E+00
 -19.750  0.136E+00  0.136E+00
 -19.740  0.135E+00  0.135E+00
 -19.730  0.134E+00  0.134E+00
 -19.720  0.134E+00  0.134E+00
 -19.710  0.133E+00  0.133E+00
 -19.700  0.133E+00  0.133E+00
 -19.690  0.134E+00  0.134E+00
 -19.680  0.134E+00  0.134E+00
 -19.670  0.134E+00  0.134E+00
 -19.660  0.133E+00  0.133E+00
 -19.650  0.132E+00  0.132E+00
 -19.640  0.131E+00  0.131E+00
 -19.630  0.130E+00  0.130E+00
 -19.620  0.129E+00  0.129E+00
 -19.610  0.130E+00  0.130E+00
 -19.600  0.130E+00  0.130E+00
 -19.590  0.131E+00  0.131E+00
 -19.580  0.131E+00  0.131E+00
 -19.570  0.131E+00  0.131E+00
 -19.560  0.131E+00  0.131E+00
 -19.550  0.129E+00  0.129E+00
 -19.540  0.128E+00  0.128E+00
 -19.530  0.126E+00  0.126E+00
 -19.520  0.125E+00  0.125E+00
 -19.510  0.126E+00  0.126E+00
 -19.500  0.126E+00  0.126E+00
 -19.490  0.128E+00  0.128E+00
 -19.480  0.129E+00  0.129E+00
 -19.470  0.129E+00  0.129E+00
 -19.460  0.129E+00  0.129E+00
 -19.450  0.127E+00  0.127E+00
 -19.440  0.126E+00  0.126E+00
 -19.430  0.124E+00  0.124E+00
 -19.420  0.123E+00  0.123E+00
 -19.410  0.122E+00  0.122E+00
 -19.400  0.122E+00  0.122E+00
 -19.390  0.123E+00  0.123E+00
 -19.380  0.124E+00  0.124E+00
 -19.370  0.125E+00  0.125E+00
 -19.360  0.126E+00  0.126E+00
 -19.350  0.126E+00  0.126E+00
 -19.340  0.126E+00  0.126E+00
 -19.330  0.124E+00  0.124E+00
 -19.320  0.123E+00  0.123E+00
 -19.310  0.121E+00  0.121E+00
 -19.300  0.119E+00  0.119E+00
 -19.290  0.118E+00  0.118E+00
 -19.280  0.118E+00  0.118E+00
 -19.270  0.119E+00  0.119E+00
 -19.260  0.120E+00  0.120E+00
 -19.250  0.122E+00  0.122E+00
 -19.240  0.124E+00  0.124E+00
 -19.230  0.125E+00  0.125E+00
 -19.220  0.125E+00  0.125E+00
 -19.210  0.123E+00  0.123E+00
 -19.200  0.121E+00  0.121E+00
 -19.190  0.118E+00  0.118E+00
 -19.180  0.116E+00  0.116E+00
 -19.170  0.114E+00  0.114E+00
 -19.160  0.113E+00  0.113E+00
 -19.150  0.114E+00  0.114E+00
 -19.140  0.116E+00  0.116E+00
 -19.130  0.118E+00  0.118E+00
 -19.120  0.121E+00  0.121E+00
 -19.110  0.123E+00  0.123E+00
 -19.100  0.124E+00  0.124E+00
 -19.090  0.124E+00  0.124E+00
 -19.080  0.121E+00  0.121E+00
 -19.070  0.118E+00  0.118E+00
 -19.060  0.114E+00  0.114E+00
 -19.050  0.111E+00  0.111E+00
 -19.040  0.108E+00  0.108E+00
 -19.030  0.108E+00  0.108E+00
 -19.020  0.109E+00  0.109E+00
 -19.010  0.112E+00  0.112E+00
 -19.000  0.116E+00  0.116E+00
 -18.990  0.120E+00  0.120E+00
 -18.980  0.123E+00  0.123E+00
 -18.970  0.124E+00  0.124E+00
 -18.960  0.124E+00  0.124E+00
 -18.950  0.121E+00  0.121E+00
 -18.940  0.117E+00  0.117E+00
 -18.930  0.112E+00  0.112E+00
 -18.920  0.107E+00  0.107E+00
 -18.910  0.104E+00  0.104E+00
 -18.900  0.103E+00  0.103E+00
 -18.890  0.104E+00  0.104E+00
 -18.880  0.107E+00  0.107E+00
 -18.870  0.111E+00  0.111E+00
 -18.860  0.116E+00  0.116E+00
 -18.850  0.120E+00  0.120E+00
 -18.840  0.123E+00  0.123E+00
 -18.830  0.124E+00  0.124E+00
 -18.820  0.123E+00  0.123E+00
 -18.810  0.120E+00  0.120E+00
 -18.800  0.115E+00  0.115E+00
 -18.790  0.109E+00  0.109E+00
 -18.780  0.104E+00  0.104E+00
 -18.770  0.999E-01  0.999E-01
 -18.760  0.980E-01  0.980E-01
 -18.750  0.986E-01  0.986E-01
 -18.740  0.101E+00  0.101E+00
 -18.730  0.106E+00  0.106E+00
 -18.720  0.111E+00  0.111E+00
 -18.710  0.117E+00  0.117E+00
 -18.700  0.121E+00  0.121E+00
 -18.690  0.123E+00  0.123E+00
 -18.680  0.124E+00  0.124E+00
 -18.670  0.122E+00  0.122E+00
 -18.660  0.118E+00  0.118E+00
 -18.650  0.113E+00  0.113E+00
 -18.640  0.107E+00  0.107E+00
 -18.630  0.102E+00  0.102E+00
 -18.620  0.970E-01  0.970E-01
 -18.610  0.942E-01  0.942E-01
 -18.600  0.936E-01  0.936E-01
 -18.590  0.953E-01  0.953E-01
 -18.580  0.992E-01  0.992E-01
 -18.570  0.105E+00  0.105E+00
 -18.560  0.111E+00  0.111E+00
 -18.550  0.117E+00  0.117E+00
 -18.540  0.121E+00  0.121E+00
 -18.530  0.124E+00  0.124E+00
 -18.520  0.124E+00  0.124E+00
 -18.510  0.121E+00  0.121E+00
 -18.500  0.117E+00  0.117E+00
 -18.490  0.111E+00  0.111E+00
 -18.480  0.105E+00  0.105E+00
 -18.470  0.997E-01  0.997E-01
 -18.460  0.951E-01  0.951E-01
 -18.450  0.920E-01  0.920E-01
 -18.440  0.906E-01  0.906E-01
 -18.430  0.909E-01  0.909E-01
 -18.420  0.931E-01  0.931E-01
 -18.410  0.971E-01  0.971E-01
 -18.400  0.102E+00  0.102E+00
 -18.390  0.109E+00  0.109E+00
 -18.380  0.115E+00  0.115E+00
 -18.370  0.120E+00  0.120E+00
 -18.360  0.124E+00  0.124E+00
 -18.350  0.125E+00  0.125E+00
 -18.340  0.123E+00  0.123E+00
 -18.330  0.118E+00  0.118E+00
 -18.320  0.112E+00  0.112E+00
 -18.310  0.105E+00  0.105E+00
 -18.300  0.978E-01  0.978E-01
 -18.290  0.919E-01  0.919E-01
 -18.280  0.877E-01  0.877E-01
 -18.270  0.858E-01  0.858E-01
 -18.260  0.859E-01  0.859E-01
 -18.250  0.881E-01  0.881E-01
 -18.240  0.918E-01  0.918E-01
 -18.230  0.967E-01  0.967E-01
 -18.220  0.102E+00  0.102E+00
 -18.210  0.108E+00  0.108E+00
 -18.200  0.114E+00  0.114E+00
 -18.190  0.119E+00  0.119E+00
 -18.180  0.122E+00  0.122E+00
 -18.170  0.124E+00  0.124E+00
 -18.160  0.123E+00  0.123E+00
 -18.150  0.119E+00  0.119E+00
 -18.140  0.114E+00  0.114E+00
 -18.130  0.107E+00  0.107E+00
 -18.120  0.989E-01  0.989E-01
 -18.110  0.913E-01  0.913E-01
 -18.100  0.849E-01  0.849E-01
 -18.090  0.806E-01  0.806E-01
 -18.080  0.788E-01  0.788E-01
 -18.070  0.799E-01  0.799E-01
 -18.060  0.836E-01  0.836E-01
 -18.050  0.895E-01  0.895E-01
 -18.040  0.968E-01  0.968E-01
 -18.030  0.105E+00  0.105E+00
 -18.020  0.112E+00  0.112E+00
 -18.010  0.118E+00  0.118E+00
 -18.000  0.121E+00  0.121E+00
 -17.990  0.123E+00  0.123E+00
 -17.980  0.122E+00  0.122E+00
 -17.970  0.120E+00  0.120E+00
 -17.960  0.115E+00  0.115E+00
 -17.950  0.110E+00  0.110E+00
 -17.940  0.104E+00  0.104E+00
 -17.930  0.977E-01  0.977E-01
 -17.920  0.917E-01  0.917E-01
 -17.910  0.862E-01  0.862E-01
 -17.900  0.817E-01  0.817E-01
 -17.890  0.785E-01  0.785E-01
 -17.880  0.771E-01  0.771E-01
 -17.870  0.779E-01  0.779E-01
 -17.860  0.812E-01  0.812E-01
 -17.850  0.869E-01  0.869E-01
 -17.840  0.946E-01  0.946E-01
 -17.830  0.103E+00  0.103E+00
 -17.820  0.112E+00  0.112E+00
 -17.810  0.120E+00  0.120E+00
 -17.800  0.125E+00  0.125E+00
 -17.790  0.126E+00  0.126E+00
 -17.780  0.125E+00  0.125E+00
 -17.770  0.120E+00  0.120E+00
 -17.760  0.114E+00  0.114E+00
 -17.750  0.106E+00  0.106E+00
 -17.740  0.984E-01  0.984E-01
 -17.730  0.918E-01  0.918E-01
 -17.720  0.865E-01  0.865E-01
 -17.710  0.828E-01  0.828E-01
 -17.700  0.805E-01  0.805E-01
 -17.690  0.794E-01  0.794E-01
 -17.680  0.792E-01  0.792E-01
 -17.670  0.799E-01  0.799E-01
 -17.660  0.816E-01  0.816E-01
 -17.650  0.844E-01  0.844E-01
 -17.640  0.885E-01  0.885E-01
 -17.630  0.941E-01  0.941E-01
 -17.620  0.101E+00  0.101E+00
 -17.610  0.108E+00  0.108E+00
 -17.600  0.116E+00  0.116E+00
 -17.590  0.122E+00  0.122E+00
 -17.580  0.125E+00  0.125E+00
 -17.570  0.126E+00  0.126E+00
 -17.560  0.123E+00  0.123E+00
 -17.550  0.117E+00  0.117E+00
 -17.540  0.109E+00  0.109E+00
 -17.530  0.996E-01  0.996E-01
 -17.520  0.907E-01  0.907E-01
 -17.510  0.830E-01  0.830E-01
 -17.500  0.773E-01  0.773E-01
 -17.490  0.738E-01  0.738E-01
 -17.480  0.726E-01  0.726E-01
 -17.470  0.734E-01  0.734E-01
 -17.460  0.759E-01  0.759E-01
 -17.450  0.797E-01  0.797E-01
 -17.440  0.844E-01  0.844E-01
 -17.430  0.897E-01  0.897E-01
 -17.420  0.953E-01  0.953E-01
 -17.410  0.101E+00  0.101E+00
 -17.400  0.106E+00  0.106E+00
 -17.390  0.111E+00  0.111E+00
 -17.380  0.115E+00  0.115E+00
 -17.370  0.117E+00  0.117E+00
 -17.360  0.119E+00  0.119E+00
 -17.350  0.119E+00  0.119E+00
 -17.340  0.117E+00  0.117E+00
 -17.330  0.113E+00  0.113E+00
 -17.320  0.108E+00  0.108E+00
 -17.310  0.101E+00  0.101E+00
 -17.300  0.939E-01  0.939E-01
 -17.290  0.864E-01  0.864E-01
 -17.280  0.795E-01  0.795E-01
 -17.270  0.739E-01  0.739E-01
 -17.260  0.700E-01  0.700E-01
 -17.250  0.682E-01  0.682E-01
 -17.240  0.687E-01  0.687E-01
 -17.230  0.714E-01  0.714E-01
 -17.220  0.764E-01  0.764E-01
 -17.210  0.831E-01  0.831E-01
 -17.200  0.911E-01  0.911E-01
 -17.190  0.996E-01  0.996E-01
 -17.180  0.108E+00  0.108E+00
 -17.170  0.114E+00  0.114E+00
 -17.160  0.119E+00  0.119E+00
 -17.150  0.121E+00  0.121E+00
 -17.140  0.120E+00  0.120E+00
 -17.130  0.117E+00  0.117E+00
 -17.120  0.113E+00  0.113E+00
 -17.110  0.107E+00  0.107E+00
 -17.100  0.102E+00  0.102E+00
 -17.090  0.971E-01  0.971E-01
 -17.080  0.929E-01  0.929E-01
 -17.070  0.892E-01  0.892E-01
 -17.060  0.858E-01  0.858E-01
 -17.050  0.824E-01  0.824E-01
 -17.040  0.790E-01  0.790E-01
 -17.030  0.757E-01  0.757E-01
 -17.020  0.728E-01  0.728E-01
 -17.010  0.709E-01  0.709E-01
 -17.000  0.705E-01  0.705E-01
 -16.990  0.722E-01  0.722E-01
 -16.980  0.760E-01  0.760E-01
 -16.970  0.821E-01  0.821E-01
 -16.960  0.900E-01  0.900E-01
 -16.950  0.991E-01  0.991E-01
 -16.940  0.108E+00  0.108E+00
 -16.930  0.117E+00  0.117E+00
 -16.920  0.123E+00  0.123E+00
 -16.910  0.126E+00  0.126E+00
 -16.900  0.126E+00  0.126E+00
 -16.890  0.122E+00  0.122E+00
 -16.880  0.115E+00  0.115E+00
 -16.870  0.106E+00  0.106E+00
 -16.860  0.969E-01  0.969E-01
 -16.850  0.885E-01  0.885E-01
 -16.840  0.819E-01  0.819E-01
 -16.830  0.775E-01  0.775E-01
 -16.820  0.753E-01  0.753E-01
 -16.810  0.748E-01  0.748E-01
 -16.800  0.753E-01  0.753E-01
 -16.790  0.760E-01  0.760E-01
 -16.780  0.766E-01  0.766E-01
 -16.770  0.770E-01  0.770E-01
 -16.760  0.775E-01  0.775E-01
 -16.750  0.785E-01  0.785E-01
 -16.740  0.804E-01  0.804E-01
 -16.730  0.837E-01  0.837E-01
 -16.720  0.885E-01  0.885E-01
 -16.710  0.946E-01  0.946E-01
 -16.700  0.101E+00  0.101E+00
 -16.690  0.108E+00  0.108E+00
 -16.680  0.115E+00  0.115E+00
 -16.670  0.119E+00  0.119E+00
 -16.660  0.122E+00  0.122E+00
 -16.650  0.122E+00  0.122E+00
 -16.640  0.120E+00  0.120E+00
 -16.630  0.115E+00  0.115E+00
 -16.620  0.107E+00  0.107E+00
 -16.610  0.985E-01  0.985E-01
 -16.600  0.893E-01  0.893E-01
 -16.590  0.807E-01  0.807E-01
 -16.580  0.736E-01  0.736E-01
 -16.570  0.686E-01  0.686E-01
 -16.560  0.660E-01  0.660E-01
 -16.550  0.658E-01  0.658E-01
 -16.540  0.675E-01  0.675E-01
 -16.530  0.706E-01  0.706E-01
 -16.520  0.745E-01  0.745E-01
 -16.510  0.789E-01  0.789E-01
 -16.500  0.833E-01  0.833E-01
 -16.490  0.878E-01  0.878E-01
 -16.480  0.925E-01  0.925E-01
 -16.470  0.972E-01  0.972E-01
 -16.460  0.102E+00  0.102E+00
 -16.450  0.107E+00  0.107E+00
 -16.440  0.110E+00  0.110E+00
 -16.430  0.113E+00  0.113E+00
 -16.420  0.115E+00  0.115E+00
 -16.410  0.114E+00  0.114E+00
 -16.400  0.113E+00  0.113E+00
 -16.390  0.110E+00  0.110E+00
 -16.380  0.107E+00  0.107E+00
 -16.370  0.104E+00  0.104E+00
 -16.360  0.995E-01  0.995E-01
 -16.350  0.950E-01  0.950E-01
 -16.340  0.899E-01  0.899E-01
 -16.330  0.843E-01  0.843E-01
 -16.320  0.783E-01  0.783E-01
 -16.310  0.726E-01  0.726E-01
 -16.300  0.677E-01  0.677E-01
 -16.290  0.644E-01  0.644E-01
 -16.280  0.631E-01  0.631E-01
 -16.270  0.643E-01  0.643E-01
 -16.260  0.678E-01  0.678E-01
 -16.250  0.734E-01  0.734E-01
 -16.240  0.806E-01  0.806E-01
 -16.230  0.887E-01  0.887E-01
 -16.220  0.970E-01  0.970E-01
 -16.210  0.105E+00  0.105E+00
 -16.200  0.112E+00  0.112E+00
 -16.190  0.117E+00  0.117E+00
 -16.180  0.120E+00  0.120E+00
 -16.170  0.121E+00  0.121E+00
 -16.160  0.119E+00  0.119E+00
 -16.150  0.116E+00  0.116E+00
 -16.140  0.110E+00  0.110E+00
 -16.130  0.104E+00  0.104E+00
 -16.120  0.979E-01  0.979E-01
 -16.110  0.925E-01  0.925E-01
 -16.100  0.884E-01  0.884E-01
 -16.090  0.859E-01  0.859E-01
 -16.080  0.846E-01  0.846E-01
 -16.070  0.838E-01  0.838E-01
 -16.060  0.829E-01  0.829E-01
 -16.050  0.813E-01  0.813E-01
 -16.040  0.787E-01  0.787E-01
 -16.030  0.753E-01  0.753E-01
 -16.020  0.717E-01  0.717E-01
 -16.010  0.689E-01  0.689E-01
 -16.000  0.677E-01  0.677E-01
 -15.990  0.690E-01  0.690E-01
 -15.980  0.730E-01  0.730E-01
 -15.970  0.798E-01  0.798E-01
 -15.960  0.887E-01  0.887E-01
 -15.950  0.987E-01  0.987E-01
 -15.940  0.109E+00  0.109E+00
 -15.930  0.118E+00  0.118E+00
 -15.920  0.124E+00  0.124E+00
 -15.910  0.128E+00  0.128E+00
 -15.900  0.128E+00  0.128E+00
 -15.890  0.125E+00  0.125E+00
 -15.880  0.119E+00  0.119E+00
 -15.870  0.112E+00  0.112E+00
 -15.860  0.104E+00  0.104E+00
 -15.850  0.955E-01  0.955E-01
 -15.840  0.880E-01  0.880E-01
 -15.830  0.820E-01  0.820E-01
 -15.820  0.780E-01  0.780E-01
 -15.810  0.761E-01  0.761E-01
 -15.800  0.760E-01  0.760E-01
 -15.790  0.772E-01  0.772E-01
 -15.780  0.790E-01  0.790E-01
 -15.770  0.806E-01  0.806E-01
 -15.760  0.813E-01  0.813E-01
 -15.750  0.811E-01  0.811E-01
 -15.740  0.800E-01  0.800E-01
 -15.730  0.788E-01  0.788E-01
 -15.720  0.784E-01  0.784E-01
 -15.710  0.797E-01  0.797E-01
 -15.700  0.833E-01  0.833E-01
 -15.690  0.894E-01  0.894E-01
 -15.680  0.975E-01  0.975E-01
 -15.670  0.107E+00  0.107E+00
 -15.660  0.116E+00  0.116E+00
 -15.650  0.124E+00  0.124E+00
 -15.640  0.129E+00  0.129E+00
 -15.630  0.131E+00  0.131E+00
 -15.620  0.129E+00  0.129E+00
 -15.610  0.125E+00  0.125E+00
 -15.600  0.118E+00  0.118E+00
 -15.590  0.110E+00  0.110E+00
 -15.580  0.102E+00  0.102E+00
 -15.570  0.940E-01  0.940E-01
 -15.560  0.871E-01  0.871E-01
 -15.550  0.816E-01  0.816E-01
 -15.540  0.777E-01  0.777E-01
 -15.530  0.757E-01  0.757E-01
 -15.520  0.754E-01  0.754E-01
 -15.510  0.766E-01  0.766E-01
 -15.500  0.789E-01  0.789E-01
 -15.490  0.816E-01  0.816E-01
 -15.480  0.843E-01  0.843E-01
 -15.470  0.864E-01  0.864E-01
 -15.460  0.880E-01  0.880E-01
 -15.450  0.892E-01  0.892E-01
 -15.440  0.908E-01  0.908E-01
 -15.430  0.934E-01  0.934E-01
 -15.420  0.975E-01  0.975E-01
 -15.410  0.103E+00  0.103E+00
 -15.400  0.111E+00  0.111E+00
 -15.390  0.119E+00  0.119E+00
 -15.380  0.126E+00  0.126E+00
 -15.370  0.132E+00  0.132E+00
 -15.360  0.136E+00  0.136E+00
 -15.350  0.136E+00  0.136E+00
 -15.340  0.133E+00  0.133E+00
 -15.330  0.128E+00  0.128E+00
 -15.320  0.121E+00  0.121E+00
 -15.310  0.113E+00  0.113E+00
 -15.300  0.105E+00  0.105E+00
 -15.290  0.991E-01  0.991E-01
 -15.280  0.943E-01  0.943E-01
 -15.270  0.911E-01  0.911E-01
 -15.260  0.894E-01  0.894E-01
 -15.250  0.891E-01  0.891E-01
 -15.240  0.898E-01  0.898E-01
 -15.230  0.912E-01  0.912E-01
 -15.220  0.929E-01  0.929E-01
 -15.210  0.948E-01  0.948E-01
 -15.200  0.967E-01  0.967E-01
 -15.190  0.987E-01  0.987E-01
 -15.180  0.101E+00  0.101E+00
 -15.170  0.105E+00  0.105E+00
 -15.160  0.111E+00  0.111E+00
 -15.150  0.118E+00  0.118E+00
 -15.140  0.127E+00  0.127E+00
 -15.130  0.138E+00  0.138E+00
 -15.120  0.149E+00  0.149E+00
 -15.110  0.159E+00  0.159E+00
 -15.100  0.167E+00  0.167E+00
 -15.090  0.173E+00  0.173E+00
 -15.080  0.176E+00  0.176E+00
 -15.070  0.176E+00  0.176E+00
 -15.060  0.174E+00  0.174E+00
 -15.050  0.171E+00  0.171E+00
 -15.040  0.166E+00  0.166E+00
 -15.030  0.160E+00  0.160E+00
 -15.020  0.154E+00  0.154E+00
 -15.010  0.146E+00  0.146E+00
 -15.000  0.138E+00  0.138E+00
 -14.990  0.130E+00  0.130E+00
 -14.980  0.121E+00  0.121E+00
 -14.970  0.112E+00  0.112E+00
 -14.960  0.104E+00  0.104E+00
 -14.950  0.962E-01  0.962E-01
 -14.940  0.894E-01  0.894E-01
 -14.930  0.841E-01  0.841E-01
 -14.920  0.808E-01  0.808E-01
 -14.910  0.798E-01  0.798E-01
 -14.900  0.813E-01  0.813E-01
 -14.890  0.852E-01  0.852E-01
 -14.880  0.910E-01  0.910E-01
 -14.870  0.978E-01  0.978E-01
 -14.860  0.105E+00  0.105E+00
 -14.850  0.110E+00  0.110E+00
 -14.840  0.114E+00  0.114E+00
 -14.830  0.115E+00  0.115E+00
 -14.820  0.113E+00  0.113E+00
 -14.810  0.109E+00  0.109E+00
 -14.800  0.104E+00  0.104E+00
 -14.790  0.985E-01  0.985E-01
 -14.780  0.937E-01  0.937E-01
 -14.770  0.900E-01  0.900E-01
 -14.760  0.874E-01  0.874E-01
 -14.750  0.856E-01  0.856E-01
 -14.740  0.839E-01  0.839E-01
 -14.730  0.814E-01  0.814E-01
 -14.720  0.772E-01  0.772E-01
 -14.710  0.709E-01  0.709E-01
 -14.700  0.625E-01  0.625E-01
 -14.690  0.525E-01  0.525E-01
 -14.680  0.418E-01  0.418E-01
 -14.670  0.317E-01  0.317E-01
 -14.660  0.235E-01  0.235E-01
 -14.650  0.183E-01  0.183E-01
 -14.640  0.170E-01  0.170E-01
 -14.630  0.202E-01  0.202E-01
 -14.620  0.276E-01  0.276E-01
 -14.610  0.390E-01  0.390E-01
 -14.600  0.536E-01  0.536E-01
 -14.590  0.701E-01  0.701E-01
 -14.580  0.871E-01  0.871E-01
 -14.570  0.103E+00  0.103E+00
 -14.560  0.116E+00  0.116E+00
 -14.550  0.124E+00  0.124E+00
 -14.540  0.126E+00  0.126E+00
 -14.530  0.121E+00  0.121E+00
 -14.520  0.111E+00  0.111E+00
 -14.510  0.951E-01  0.951E-01
 -14.500  0.761E-01  0.761E-01
 -14.490  0.562E-01  0.562E-01
 -14.480  0.374E-01  0.374E-01
 -14.470  0.216E-01  0.216E-01
 -14.460  0.988E-02  0.988E-02
 -14.450  0.259E-02  0.259E-02
 -14.440 -0.553E-03 -0.553E-03
 -14.430 -0.284E-03 -0.284E-03
 -14.420  0.251E-02  0.251E-02
 -14.410  0.703E-02  0.703E-02
 -14.400  0.127E-01  0.127E-01
 -14.390  0.193E-01  0.193E-01
 -14.380  0.267E-01  0.267E-01
 -14.370  0.351E-01  0.351E-01
 -14.360  0.443E-01  0.443E-01
 -14.350  0.542E-01  0.542E-01
 -14.340  0.644E-01  0.644E-01
 -14.330  0.740E-01  0.740E-01
 -14.320  0.822E-01  0.822E-01
 -14.310  0.877E-01  0.877E-01
 -14.300  0.898E-01  0.898E-01
 -14.290  0.878E-01  0.878E-01
 -14.280  0.817E-01  0.817E-01
 -14.270  0.720E-01  0.720E-01
 -14.260  0.598E-01  0.598E-01
 -14.250  0.464E-01  0.464E-01
 -14.240  0.334E-01  0.334E-01
 -14.230  0.220E-01  0.220E-01
 -14.220  0.131E-01  0.131E-01
 -14.210  0.706E-02  0.706E-02
 -14.200  0.381E-02  0.381E-02
 -14.190  0.298E-02  0.298E-02
 -14.180  0.405E-02  0.405E-02
 -14.170  0.650E-02  0.650E-02
 -14.160  0.993E-02  0.993E-02
 -14.150  0.140E-01  0.140E-01
 -14.140  0.186E-01  0.186E-01
 -14.130  0.235E-01  0.235E-01
 -14.120  0.286E-01  0.286E-01
 -14.110  0.337E-01  0.337E-01
 -14.100  0.387E-01  0.387E-01
 -14.090  0.433E-01  0.433E-01
 -14.080  0.474E-01  0.474E-01
 -14.070  0.507E-01  0.507E-01
 -14.060  0.529E-01  0.529E-01
 -14.050  0.537E-01  0.537E-01
 -14.040  0.528E-01  0.528E-01
 -14.030  0.502E-01  0.502E-01
 -14.020  0.459E-01  0.459E-01
 -14.010  0.402E-01  0.402E-01
 -14.000  0.337E-01  0.337E-01
 -13.990  0.272E-01  0.272E-01
 -13.980  0.212E-01  0.212E-01
 -13.970  0.163E-01  0.163E-01
 -13.960  0.130E-01  0.130E-01
 -13.950  0.114E-01  0.114E-01
 -13.940  0.115E-01  0.115E-01
 -13.930  0.132E-01  0.132E-01
 -13.920  0.164E-01  0.164E-01
 -13.910  0.207E-01  0.207E-01
 -13.900  0.260E-01  0.260E-01
 -13.890  0.320E-01  0.320E-01
 -13.880  0.382E-01  0.382E-01
 -13.870  0.443E-01  0.443E-01
 -13.860  0.500E-01  0.500E-01
 -13.850  0.549E-01  0.549E-01
 -13.840  0.588E-01  0.588E-01
 -13.830  0.617E-01  0.617E-01
 -13.820  0.635E-01  0.635E-01
 -13.810  0.643E-01  0.643E-01
 -13.800  0.640E-01  0.640E-01
 -13.790  0.627E-01  0.627E-01
 -13.780  0.604E-01  0.604E-01
 -13.770  0.570E-01  0.570E-01
 -13.760  0.529E-01  0.529E-01
 -13.750  0.484E-01  0.484E-01
 -13.740  0.441E-01  0.441E-01
 -13.730  0.405E-01  0.405E-01
 -13.720  0.383E-01  0.383E-01
 -13.710  0.375E-01  0.375E-01
 -13.700  0.382E-01  0.382E-01
 -13.690  0.401E-01  0.401E-01
 -13.680  0.425E-01  0.425E-01
 -13.670  0.447E-01  0.447E-01
 -13.660  0.463E-01  0.463E-01
 -13.650  0.469E-01  0.469E-01
 -13.640  0.467E-01  0.467E-01
 -13.630  0.459E-01  0.459E-01
 -13.620  0.451E-01  0.451E-01
 -13.610  0.449E-01  0.449E-01
 -13.600  0.457E-01  0.457E-01
 -13.590  0.475E-01  0.475E-01
 -13.580  0.502E-01  0.502E-01
 -13.570  0.532E-01  0.532E-01
 -13.560  0.557E-01  0.557E-01
 -13.550  0.572E-01  0.572E-01
 -13.540  0.574E-01  0.574E-01
 -13.530  0.559E-01  0.559E-01
 -13.520  0.532E-01  0.532E-01
 -13.510  0.496E-01  0.496E-01
 -13.500  0.456E-01  0.456E-01
 -13.490  0.419E-01  0.419E-01
 -13.480  0.390E-01  0.390E-01
 -13.470  0.371E-01  0.371E-01
 -13.460  0.365E-01  0.365E-01
 -13.450  0.372E-01  0.372E-01
 -13.440  0.391E-01  0.391E-01
 -13.430  0.420E-01  0.420E-01
 -13.420  0.454E-01  0.454E-01
 -13.410  0.490E-01  0.490E-01
 -13.400  0.523E-01  0.523E-01
 -13.390  0.549E-01  0.549E-01
 -13.380  0.564E-01  0.564E-01
 -13.370  0.567E-01  0.567E-01
 -13.360  0.559E-01  0.559E-01
 -13.350  0.543E-01  0.543E-01
 -13.340  0.523E-01  0.523E-01
 -13.330  0.506E-01  0.506E-01
 -13.320  0.494E-01  0.494E-01
 -13.310  0.492E-01  0.492E-01
 -13.300  0.500E-01  0.500E-01
 -13.290  0.516E-01  0.516E-01
 -13.280  0.538E-01  0.538E-01
 -13.270  0.561E-01  0.561E-01
 -13.260  0.584E-01  0.584E-01
 -13.250  0.607E-01  0.607E-01
 -13.240  0.632E-01  0.632E-01
 -13.230  0.660E-01  0.660E-01
 -13.220  0.693E-01  0.693E-01
 -13.210  0.733E-01  0.733E-01
 -13.200  0.777E-01  0.777E-01
 -13.190  0.823E-01  0.823E-01
 -13.180  0.865E-01  0.865E-01
 -13.170  0.897E-01  0.897E-01
 -13.160  0.917E-01  0.917E-01
 -13.150  0.922E-01  0.922E-01
 -13.140  0.914E-01  0.914E-01
 -13.130  0.896E-01  0.896E-01
 -13.120  0.873E-01  0.873E-01
 -13.110  0.851E-01  0.851E-01
 -13.100  0.834E-01  0.834E-01
 -13.090  0.826E-01  0.826E-01
 -13.080  0.827E-01  0.827E-01
 -13.070  0.835E-01  0.835E-01
 -13.060  0.848E-01  0.848E-01
 -13.050  0.860E-01  0.860E-01
 -13.040  0.868E-01  0.868E-01
 -13.030  0.867E-01  0.867E-01
 -13.020  0.857E-01  0.857E-01
 -13.010  0.835E-01  0.835E-01
 -13.000  0.806E-01  0.806E-01
 -12.990  0.770E-01  0.770E-01
 -12.980  0.732E-01  0.732E-01
 -12.970  0.695E-01  0.695E-01
 -12.960  0.662E-01  0.662E-01
 -12.950  0.634E-01  0.634E-01
 -12.940  0.612E-01  0.612E-01
 -12.930  0.596E-01  0.596E-01
 -12.920  0.587E-01  0.587E-01
 -12.910  0.587E-01  0.587E-01
 -12.900  0.595E-01  0.595E-01
 -12.890  0.613E-01  0.613E-01
 -12.880  0.641E-01  0.641E-01
 -12.870  0.676E-01  0.676E-01
 -12.860  0.714E-01  0.714E-01
 -12.850  0.749E-01  0.749E-01
 -12.840  0.774E-01  0.774E-01
 -12.830  0.782E-01  0.782E-01
 -12.820  0.772E-01  0.772E-01
 -12.810  0.741E-01  0.741E-01
 -12.800  0.696E-01  0.696E-01
 -12.790  0.641E-01  0.641E-01
 -12.780  0.586E-01  0.586E-01
 -12.770  0.540E-01  0.540E-01
 -12.760  0.509E-01  0.509E-01
 -12.750  0.497E-01  0.497E-01
 -12.740  0.503E-01  0.503E-01
 -12.730  0.523E-01  0.523E-01
 -12.720  0.552E-01  0.552E-01
 -12.710  0.583E-01  0.583E-01
 -12.700  0.612E-01  0.612E-01
 -12.690  0.636E-01  0.636E-01
 -12.680  0.653E-01  0.653E-01
 -12.670  0.665E-01  0.665E-01
 -12.660  0.674E-01  0.674E-01
 -12.650  0.679E-01  0.679E-01
 -12.640  0.681E-01  0.681E-01
 -12.630  0.678E-01  0.678E-01
 -12.620  0.667E-01  0.667E-01
 -12.610  0.647E-01  0.647E-01
 -12.600  0.618E-01  0.618E-01
 -12.590  0.582E-01  0.582E-01
 -12.580  0.543E-01  0.543E-01
 -12.570  0.507E-01  0.507E-01
 -12.560  0.478E-01  0.478E-01
 -12.550  0.462E-01  0.462E-01
 -12.540  0.459E-01  0.459E-01
 -12.530  0.470E-01  0.470E-01
 -12.520  0.492E-01  0.492E-01
 -12.510  0.521E-01  0.521E-01
 -12.500  0.554E-01  0.554E-01
 -12.490  0.586E-01  0.586E-01
 -12.480  0.614E-01  0.614E-01
 -12.470  0.637E-01  0.637E-01
 -12.460  0.653E-01  0.653E-01
 -12.450  0.662E-01  0.662E-01
 -12.440  0.663E-01  0.663E-01
 -12.430  0.656E-01  0.656E-01
 -12.420  0.640E-01  0.640E-01
 -12.410  0.614E-01  0.614E-01
 -12.400  0.580E-01  0.580E-01
 -12.390  0.538E-01  0.538E-01
 -12.380  0.493E-01  0.493E-01
 -12.370  0.448E-01  0.448E-01
 -12.360  0.410E-01  0.410E-01
 -12.350  0.385E-01  0.385E-01
 -12.340  0.377E-01  0.377E-01
 -12.330  0.389E-01  0.389E-01
 -12.320  0.421E-01  0.421E-01
 -12.310  0.470E-01  0.470E-01
 -12.300  0.528E-01  0.528E-01
 -12.290  0.588E-01  0.588E-01
 -12.280  0.639E-01  0.639E-01
 -12.270  0.673E-01  0.673E-01
 -12.260  0.686E-01  0.686E-01
 -12.250  0.676E-01  0.676E-01
 -12.240  0.646E-01  0.646E-01
 -12.230  0.601E-01  0.601E-01
 -12.220  0.551E-01  0.551E-01
 -12.210  0.502E-01  0.502E-01
 -12.200  0.462E-01  0.462E-01
 -12.190  0.435E-01  0.435E-01
 -12.180  0.422E-01  0.422E-01
 -12.170  0.419E-01  0.419E-01
 -12.160  0.424E-01  0.424E-01
 -12.150  0.432E-01  0.432E-01
 -12.140  0.439E-01  0.439E-01
 -12.130  0.444E-01  0.444E-01
 -12.120  0.447E-01  0.447E-01
 -12.110  0.450E-01  0.450E-01
 -12.100  0.456E-01  0.456E-01
 -12.090  0.468E-01  0.468E-01
 -12.080  0.489E-01  0.489E-01
 -12.070  0.516E-01  0.516E-01
 -12.060  0.549E-01  0.549E-01
 -12.050  0.581E-01  0.581E-01
 -12.040  0.607E-01  0.607E-01
 -12.030  0.621E-01  0.621E-01
 -12.020  0.619E-01  0.619E-01
 -12.010  0.600E-01  0.600E-01
 -12.000  0.566E-01  0.566E-01
 -11.990  0.519E-01  0.519E-01
 -11.980  0.466E-01  0.466E-01
 -11.970  0.414E-01  0.414E-01
 -11.960  0.368E-01  0.368E-01
 -11.950  0.332E-01  0.332E-01
 -11.940  0.311E-01  0.311E-01
 -11.930  0.306E-01  0.306E-01
 -11.920  0.316E-01  0.316E-01
 -11.910  0.342E-01  0.342E-01
 -11.900  0.381E-01  0.381E-01
 -11.890  0.430E-01  0.430E-01
 -11.880  0.483E-01  0.483E-01
 -11.870  0.535E-01  0.535E-01
 -11.860  0.580E-01  0.580E-01
 -11.850  0.612E-01  0.612E-01
 -11.840  0.627E-01  0.627E-01
 -11.830  0.623E-01  0.623E-01
 -11.820  0.601E-01  0.601E-01
 -11.810  0.563E-01  0.563E-01
 -11.800  0.515E-01  0.515E-01
 -11.790  0.462E-01  0.462E-01
 -11.780  0.409E-01  0.409E-01
 -11.770  0.363E-01  0.363E-01
 -11.760  0.328E-01  0.328E-01
 -11.750  0.305E-01  0.305E-01
 -11.740  0.298E-01  0.298E-01
 -11.730  0.306E-01  0.306E-01
 -11.720  0.328E-01  0.328E-01
 -11.710  0.359E-01  0.359E-01
 -11.700  0.397E-01  0.397E-01
 -11.690  0.436E-01  0.436E-01
 -11.680  0.471E-01  0.471E-01
 -11.670  0.498E-01  0.498E-01
 -11.660  0.514E-01  0.514E-01
 -11.650  0.519E-01  0.519E-01
 -11.640  0.514E-01  0.514E-01
 -11.630  0.500E-01  0.500E-01
 -11.620  0.482E-01  0.482E-01
 -11.610  0.463E-01  0.463E-01
 -11.600  0.447E-01  0.447E-01
 -11.590  0.434E-01  0.434E-01
 -11.580  0.426E-01  0.426E-01
 -11.570  0.420E-01  0.420E-01
 -11.560  0.416E-01  0.416E-01
 -11.550  0.409E-01  0.409E-01
 -11.540  0.401E-01  0.401E-01
 -11.530  0.389E-01  0.389E-01
 -11.520  0.376E-01  0.376E-01
 -11.510  0.364E-01  0.364E-01
 -11.500  0.354E-01  0.354E-01
 -11.490  0.349E-01  0.349E-01
 -11.480  0.350E-01  0.350E-01
 -11.470  0.356E-01  0.356E-01
 -11.460  0.367E-01  0.367E-01
 -11.450  0.382E-01  0.382E-01
 -11.440  0.400E-01  0.400E-01
 -11.430  0.419E-01  0.419E-01
 -11.420  0.438E-01  0.438E-01
 -11.410  0.456E-01  0.456E-01
 -11.400  0.469E-01  0.469E-01
 -11.390  0.478E-01  0.478E-01
 -11.380  0.480E-01  0.480E-01
 -11.370  0.473E-01  0.473E-01
 -11.360  0.459E-01  0.459E-01
 -11.350  0.436E-01  0.436E-01
 -11.340  0.408E-01  0.408E-01
 -11.330  0.375E-01  0.375E-01
 -11.320  0.343E-01  0.343E-01
 -11.310  0.314E-01  0.314E-01
 -11.300  0.294E-01  0.294E-01
 -11.290  0.284E-01  0.284E-01
 -11.280  0.288E-01  0.288E-01
 -11.270  0.304E-01  0.304E-01
 -11.260  0.332E-01  0.332E-01
 -11.250  0.366E-01  0.366E-01
 -11.240  0.402E-01  0.402E-01
 -11.230  0.435E-01  0.435E-01
 -11.220  0.460E-01  0.460E-01
 -11.210  0.475E-01  0.475E-01
 -11.200  0.476E-01  0.476E-01
 -11.190  0.463E-01  0.463E-01
 -11.180  0.439E-01  0.439E-01
 -11.170  0.407E-01  0.407E-01
 -11.160  0.370E-01  0.370E-01
 -11.150  0.334E-01  0.334E-01
 -11.140  0.305E-01  0.305E-01
 -11.130  0.285E-01  0.285E-01
 -11.120  0.277E-01  0.277E-01
 -11.110  0.283E-01  0.283E-01
 -11.100  0.300E-01  0.300E-01
 -11.090  0.327E-01  0.327E-01
 -11.080  0.360E-01  0.360E-01
 -11.070  0.394E-01  0.394E-01
 -11.060  0.427E-01  0.427E-01
 -11.050  0.455E-01  0.455E-01
 -11.040  0.475E-01  0.475E-01
 -11.030  0.484E-01  0.484E-01
 -11.020  0.481E-01  0.481E-01
 -11.010  0.465E-01  0.465E-01
 -11.000  0.437E-01  0.437E-01
 -10.990  0.400E-01  0.400E-01
 -10.980  0.356E-01  0.356E-01
 -10.970  0.312E-01  0.312E-01
 -10.960  0.273E-01  0.273E-01
 -10.950  0.244E-01  0.244E-01
 -10.940  0.227E-01  0.227E-01
 -10.930  0.226E-01  0.226E-01
 -10.920  0.240E-01  0.240E-01
 -10.910  0.267E-01  0.267E-01
 -10.900  0.305E-01  0.305E-01
 -10.890  0.349E-01  0.349E-01
 -10.880  0.396E-01  0.396E-01
 -10.870  0.440E-01  0.440E-01
 -10.860  0.477E-01  0.477E-01
 -10.850  0.504E-01  0.504E-01
 -10.840  0.517E-01  0.517E-01
 -10.830  0.515E-01  0.515E-01
 -10.820  0.498E-01  0.498E-01
 -10.810  0.468E-01  0.468E-01
 -10.800  0.427E-01  0.427E-01
 -10.790  0.380E-01  0.380E-01
 -10.780  0.332E-01  0.332E-01
 -10.770  0.289E-01  0.289E-01
 -10.760  0.254E-01  0.254E-01
 -10.750  0.231E-01  0.231E-01
 -10.740  0.222E-01  0.222E-01
 -10.730  0.226E-01  0.226E-01
 -10.720  0.243E-01  0.243E-01
 -10.710  0.270E-01  0.270E-01
 -10.700  0.302E-01  0.302E-01
 -10.690  0.336E-01  0.336E-01
 -10.680  0.368E-01  0.368E-01
 -10.670  0.394E-01  0.394E-01
 -10.660  0.414E-01  0.414E-01
 -10.650  0.426E-01  0.426E-01
 -10.640  0.431E-01  0.431E-01
 -10.630  0.431E-01  0.431E-01
 -10.620  0.428E-01  0.428E-01
 -10.610  0.423E-01  0.423E-01
 -10.600  0.417E-01  0.417E-01
 -10.590  0.408E-01  0.408E-01
 -10.580  0.398E-01  0.398E-01
 -10.570  0.385E-01  0.385E-01
 -10.560  0.369E-01  0.369E-01
 -10.550  0.351E-01  0.351E-01
 -10.540  0.333E-01  0.333E-01
 -10.530  0.317E-01  0.317E-01
 -10.520  0.304E-01  0.304E-01
 -10.510  0.296E-01  0.296E-01
 -10.500  0.292E-01  0.292E-01
 -10.490  0.291E-01  0.291E-01
 -10.480  0.291E-01  0.291E-01
 -10.470  0.292E-01  0.292E-01
 -10.460  0.293E-01  0.293E-01
 -10.450  0.295E-01  0.295E-01
 -10.440  0.299E-01  0.299E-01
 -10.430  0.306E-01  0.306E-01
 -10.420  0.319E-01  0.319E-01
 -10.410  0.337E-01  0.337E-01
 -10.400  0.359E-01  0.359E-01
 -10.390  0.384E-01  0.384E-01
 -10.380  0.408E-01  0.408E-01
 -10.370  0.430E-01  0.430E-01
 -10.360  0.447E-01  0.447E-01
 -10.350  0.457E-01  0.457E-01
 -10.340  0.459E-01  0.459E-01
 -10.330  0.453E-01  0.453E-01
 -10.320  0.438E-01  0.438E-01
 -10.310  0.415E-01  0.415E-01
 -10.300  0.385E-01  0.385E-01
 -10.290  0.347E-01  0.347E-01
 -10.280  0.305E-01  0.305E-01
 -10.270  0.262E-01  0.262E-01
 -10.260  0.221E-01  0.221E-01
 -10.250  0.187E-01  0.187E-01
 -10.240  0.166E-01  0.166E-01
 -10.230  0.161E-01  0.161E-01
 -10.220  0.174E-01  0.174E-01
 -10.210  0.204E-01  0.204E-01
 -10.200  0.249E-01  0.249E-01
 -10.190  0.304E-01  0.304E-01
 -10.180  0.362E-01  0.362E-01
 -10.170  0.417E-01  0.417E-01
 -10.160  0.463E-01  0.463E-01
 -10.150  0.496E-01  0.496E-01
 -10.140  0.511E-01  0.511E-01
 -10.130  0.510E-01  0.510E-01
 -10.120  0.492E-01  0.492E-01
 -10.110  0.462E-01  0.462E-01
 -10.100  0.422E-01  0.422E-01
 -10.090  0.377E-01  0.377E-01
 -10.080  0.331E-01  0.331E-01
 -10.070  0.288E-01  0.288E-01
 -10.060  0.253E-01  0.253E-01
 -10.050  0.226E-01  0.226E-01
 -10.040  0.209E-01  0.209E-01
 -10.030  0.203E-01  0.203E-01
 -10.020  0.207E-01  0.207E-01
 -10.010  0.221E-01  0.221E-01
 -10.000  0.243E-01  0.243E-01
  -9.990  0.273E-01  0.273E-01
  -9.980  0.307E-01  0.307E-01
  -9.970  0.344E-01  0.344E-01
  -9.960  0.378E-01  0.378E-01
  -9.950  0.408E-01  0.408E-01
  -9.940  0.429E-01  0.429E-01
  -9.930  0.438E-01  0.438E-01
  -9.920  0.435E-01  0.435E-01
  -9.910  0.418E-01  0.418E-01
  -9.900  0.389E-01  0.389E-01
  -9.890  0.352E-01  0.352E-01
  -9.880  0.311E-01  0.311E-01
  -9.870  0.270E-01  0.270E-01
  -9.860  0.234E-01  0.234E-01
  -9.850  0.209E-01  0.209E-01
  -9.840  0.196E-01  0.196E-01
  -9.830  0.197E-01  0.197E-01
  -9.820  0.214E-01  0.214E-01
  -9.810  0.244E-01  0.244E-01
  -9.800  0.284E-01  0.284E-01
  -9.790  0.332E-01  0.332E-01
  -9.780  0.382E-01  0.382E-01
  -9.770  0.429E-01  0.429E-01
  -9.760  0.469E-01  0.469E-01
  -9.750  0.496E-01  0.496E-01
  -9.740  0.507E-01  0.507E-01
  -9.730  0.499E-01  0.499E-01
  -9.720  0.472E-01  0.472E-01
  -9.710  0.428E-01  0.428E-01
  -9.700  0.370E-01  0.370E-01
  -9.690  0.305E-01  0.305E-01
  -9.680  0.239E-01  0.239E-01
  -9.670  0.178E-01  0.178E-01
  -9.660  0.128E-01  0.128E-01
  -9.650  0.939E-02  0.939E-02
  -9.640  0.787E-02  0.787E-02
  -9.630  0.830E-02  0.830E-02
  -9.620  0.106E-01  0.106E-01
  -9.610  0.146E-01  0.146E-01
  -9.600  0.198E-01  0.198E-01
  -9.590  0.260E-01  0.260E-01
  -9.580  0.326E-01  0.326E-01
  -9.570  0.392E-01  0.392E-01
  -9.560  0.452E-01  0.452E-01
  -9.550  0.502E-01  0.502E-01
  -9.540  0.539E-01  0.539E-01
  -9.530  0.558E-01  0.558E-01
  -9.520  0.557E-01  0.557E-01
  -9.510  0.537E-01  0.537E-01
  -9.500  0.500E-01  0.500E-01
  -9.490  0.447E-01  0.447E-01
  -9.480  0.384E-01  0.384E-01
  -9.470  0.317E-01  0.317E-01
  -9.460  0.250E-01  0.250E-01
  -9.450  0.190E-01  0.190E-01
  -9.440  0.140E-01  0.140E-01
  -9.430  0.104E-01  0.104E-01
  -9.420  0.840E-02  0.840E-02
  -9.410  0.801E-02  0.801E-02
  -9.400  0.927E-02  0.927E-02
  -9.390  0.121E-01  0.121E-01
  -9.380  0.162E-01  0.162E-01
  -9.370  0.215E-01  0.215E-01
  -9.360  0.274E-01  0.274E-01
  -9.350  0.335E-01  0.335E-01
  -9.340  0.392E-01  0.392E-01
  -9.330  0.439E-01  0.439E-01
  -9.320  0.470E-01  0.470E-01
  -9.310  0.483E-01  0.483E-01
  -9.300  0.476E-01  0.476E-01
  -9.290  0.451E-01  0.451E-01
  -9.280  0.412E-01  0.412E-01
  -9.270  0.365E-01  0.365E-01
  -9.260  0.317E-01  0.317E-01
  -9.250  0.273E-01  0.273E-01
  -9.240  0.238E-01  0.238E-01
  -9.230  0.213E-01  0.213E-01
  -9.220  0.200E-01  0.200E-01
  -9.210  0.197E-01  0.197E-01
  -9.200  0.202E-01  0.202E-01
  -9.190  0.215E-01  0.215E-01
  -9.180  0.235E-01  0.235E-01
  -9.170  0.259E-01  0.259E-01
  -9.160  0.288E-01  0.288E-01
  -9.150  0.319E-01  0.319E-01
  -9.140  0.350E-01  0.350E-01
  -9.130  0.377E-01  0.377E-01
  -9.120  0.397E-01  0.397E-01
  -9.110  0.403E-01  0.403E-01
  -9.100  0.396E-01  0.396E-01
  -9.090  0.372E-01  0.372E-01
  -9.080  0.335E-01  0.335E-01
  -9.070  0.290E-01  0.290E-01
  -9.060  0.241E-01  0.241E-01
  -9.050  0.196E-01  0.196E-01
  -9.040  0.160E-01  0.160E-01
  -9.030  0.139E-01  0.139E-01
  -9.020  0.133E-01  0.133E-01
  -9.010  0.141E-01  0.141E-01
  -9.000  0.162E-01  0.162E-01
  -8.990  0.192E-01  0.192E-01
  -8.980  0.227E-01  0.227E-01
  -8.970  0.265E-01  0.265E-01
  -8.960  0.304E-01  0.304E-01
  -8.950  0.342E-01  0.342E-01
  -8.940  0.379E-01  0.379E-01
  -8.930  0.413E-01  0.413E-01
  -8.920  0.442E-01  0.442E-01
  -8.910  0.464E-01  0.464E-01
  -8.900  0.474E-01  0.474E-01
  -8.890  0.468E-01  0.468E-01
  -8.880  0.446E-01  0.446E-01
  -8.870  0.408E-01  0.408E-01
  -8.860  0.355E-01  0.355E-01
  -8.850  0.293E-01  0.293E-01
  -8.840  0.229E-01  0.229E-01
  -8.830  0.169E-01  0.169E-01
  -8.820  0.119E-01  0.119E-01
  -8.810  0.836E-02  0.836E-02
  -8.800  0.644E-02  0.644E-02
  -8.790  0.616E-02  0.616E-02
  -8.780  0.738E-02  0.738E-02
  -8.770  0.991E-02  0.991E-02
  -8.760  0.135E-01  0.135E-01
  -8.750  0.179E-01  0.179E-01
  -8.740  0.228E-01  0.228E-01
  -8.730  0.280E-01  0.280E-01
  -8.720  0.332E-01  0.332E-01
  -8.710  0.380E-01  0.380E-01
  -8.700  0.421E-01  0.421E-01
  -8.690  0.451E-01  0.451E-01
  -8.680  0.466E-01  0.466E-01
  -8.670  0.466E-01  0.466E-01
  -8.660  0.449E-01  0.449E-01
  -8.650  0.418E-01  0.418E-01
  -8.640  0.376E-01  0.376E-01
  -8.630  0.326E-01  0.326E-01
  -8.620  0.276E-01  0.276E-01
  -8.610  0.228E-01  0.228E-01
  -8.600  0.187E-01  0.187E-01
  -8.590  0.156E-01  0.156E-01
  -8.580  0.136E-01  0.136E-01
  -8.570  0.128E-01  0.128E-01
  -8.560  0.130E-01  0.130E-01
  -8.550  0.142E-01  0.142E-01
  -8.540  0.162E-01  0.162E-01
  -8.530  0.187E-01  0.187E-01
  -8.520  0.217E-01  0.217E-01
  -8.510  0.248E-01  0.248E-01
  -8.500  0.278E-01  0.278E-01
  -8.490  0.304E-01  0.304E-01
  -8.480  0.325E-01  0.325E-01
  -8.470  0.337E-01  0.337E-01
  -8.460  0.341E-01  0.341E-01
  -8.450  0.337E-01  0.337E-01
  -8.440  0.324E-01  0.324E-01
  -8.430  0.307E-01  0.307E-01
  -8.420  0.286E-01  0.286E-01
  -8.410  0.266E-01  0.266E-01
  -8.400  0.247E-01  0.247E-01
  -8.390  0.232E-01  0.232E-01
  -8.380  0.220E-01  0.220E-01
  -8.370  0.211E-01  0.211E-01
  -8.360  0.207E-01  0.207E-01
  -8.350  0.206E-01  0.206E-01
  -8.340  0.209E-01  0.209E-01
  -8.330  0.217E-01  0.217E-01
  -8.320  0.230E-01  0.230E-01
  -8.310  0.247E-01  0.247E-01
  -8.300  0.267E-01  0.267E-01
  -8.290  0.287E-01  0.287E-01
  -8.280  0.305E-01  0.305E-01
  -8.270  0.317E-01  0.317E-01
  -8.260  0.322E-01  0.322E-01
  -8.250  0.318E-01  0.318E-01
  -8.240  0.305E-01  0.305E-01
  -8.230  0.286E-01  0.286E-01
  -8.220  0.263E-01  0.263E-01
  -8.210  0.237E-01  0.237E-01
  -8.200  0.213E-01  0.213E-01
  -8.190  0.193E-01  0.193E-01
  -8.180  0.178E-01  0.178E-01
  -8.170  0.169E-01  0.169E-01
  -8.160  0.166E-01  0.166E-01
  -8.150  0.167E-01  0.167E-01
  -8.140  0.172E-01  0.172E-01
  -8.130  0.180E-01  0.180E-01
  -8.120  0.190E-01  0.190E-01
  -8.110  0.204E-01  0.204E-01
  -8.100  0.221E-01  0.221E-01
  -8.090  0.242E-01  0.242E-01
  -8.080  0.265E-01  0.265E-01
  -8.070  0.289E-01  0.289E-01
  -8.060  0.311E-01  0.311E-01
  -8.050  0.329E-01  0.329E-01
  -8.040  0.338E-01  0.338E-01
  -8.030  0.338E-01  0.338E-01
  -8.020  0.327E-01  0.327E-01
  -8.010  0.306E-01  0.306E-01
  -8.000  0.277E-01  0.277E-01
  -7.990  0.244E-01  0.244E-01
  -7.980  0.212E-01  0.212E-01
  -7.970  0.183E-01  0.183E-01
  -7.960  0.162E-01  0.162E-01
  -7.950  0.151E-01  0.151E-01
  -7.940  0.149E-01  0.149E-01
  -7.930  0.155E-01  0.155E-01
  -7.920  0.168E-01  0.168E-01
  -7.910  0.184E-01  0.184E-01
  -7.900  0.202E-01  0.202E-01
  -7.890  0.218E-01  0.218E-01
  -7.880  0.232E-01  0.232E-01
  -7.870  0.242E-01  0.242E-01
  -7.860  0.247E-01  0.247E-01
  -7.850  0.250E-01  0.250E-01
  -7.840  0.249E-01  0.249E-01
  -7.830  0.246E-01  0.246E-01
  -7.820  0.241E-01  0.241E-01
  -7.810  0.235E-01  0.235E-01
  -7.800  0.228E-01  0.228E-01
  -7.790  0.220E-01  0.220E-01
  -7.780  0.212E-01  0.212E-01
  -7.770  0.205E-01  0.205E-01
  -7.760  0.199E-01  0.199E-01
  -7.750  0.196E-01  0.196E-01
  -7.740  0.196E-01  0.196E-01
  -7.730  0.198E-01  0.198E-01
  -7.720  0.204E-01  0.204E-01
  -7.710  0.211E-01  0.211E-01
  -7.700  0.219E-01  0.219E-01
  -7.690  0.228E-01  0.228E-01
  -7.680  0.235E-01  0.235E-01
  -7.670  0.240E-01  0.240E-01
  -7.660  0.244E-01  0.244E-01
  -7.650  0.244E-01  0.244E-01
  -7.640  0.243E-01  0.243E-01
  -7.630  0.239E-01  0.239E-01
  -7.620  0.234E-01  0.234E-01
  -7.610  0.227E-01  0.227E-01
  -7.600  0.218E-01  0.218E-01
  -7.590  0.206E-01  0.206E-01
  -7.580  0.193E-01  0.193E-01
  -7.570  0.178E-01  0.178E-01
  -7.560  0.163E-01  0.163E-01
  -7.550  0.150E-01  0.150E-01
  -7.540  0.139E-01  0.139E-01
  -7.530  0.132E-01  0.132E-01
  -7.520  0.128E-01  0.128E-01
  -7.510  0.129E-01  0.129E-01
  -7.500  0.135E-01  0.135E-01
  -7.490  0.145E-01  0.145E-01
  -7.480  0.159E-01  0.159E-01
  -7.470  0.178E-01  0.178E-01
  -7.460  0.201E-01  0.201E-01
  -7.450  0.226E-01  0.226E-01
  -7.440  0.251E-01  0.251E-01
  -7.430  0.274E-01  0.274E-01
  -7.420  0.291E-01  0.291E-01
  -7.410  0.299E-01  0.299E-01
  -7.400  0.296E-01  0.296E-01
  -7.390  0.283E-01  0.283E-01
  -7.380  0.259E-01  0.259E-01
  -7.370  0.228E-01  0.228E-01
  -7.360  0.194E-01  0.194E-01
  -7.350  0.160E-01  0.160E-01
  -7.340  0.130E-01  0.130E-01
  -7.330  0.108E-01  0.108E-01
  -7.320  0.960E-02  0.960E-02
  -7.310  0.931E-02  0.931E-02
  -7.300  0.981E-02  0.981E-02
  -7.290  0.109E-01  0.109E-01
  -7.280  0.123E-01  0.123E-01
  -7.270  0.137E-01  0.137E-01
  -7.260  0.149E-01  0.149E-01
  -7.250  0.160E-01  0.160E-01
  -7.240  0.168E-01  0.168E-01
  -7.230  0.175E-01  0.175E-01
  -7.220  0.182E-01  0.182E-01
  -7.210  0.189E-01  0.189E-01
  -7.200  0.196E-01  0.196E-01
  -7.190  0.203E-01  0.203E-01
  -7.180  0.208E-01  0.208E-01
  -7.170  0.211E-01  0.211E-01
  -7.160  0.209E-01  0.209E-01
  -7.150  0.203E-01  0.203E-01
  -7.140  0.192E-01  0.192E-01
  -7.130  0.179E-01  0.179E-01
  -7.120  0.164E-01  0.164E-01
  -7.110  0.151E-01  0.151E-01
  -7.100  0.140E-01  0.140E-01
  -7.090  0.133E-01  0.133E-01
  -7.080  0.130E-01  0.130E-01
  -7.070  0.131E-01  0.131E-01
  -7.060  0.136E-01  0.136E-01
  -7.050  0.142E-01  0.142E-01
  -7.040  0.148E-01  0.148E-01
  -7.030  0.153E-01  0.153E-01
  -7.020  0.157E-01  0.157E-01
  -7.010  0.158E-01  0.158E-01
  -7.000  0.158E-01  0.158E-01
  -6.990  0.154E-01  0.154E-01
  -6.980  0.149E-01  0.149E-01
  -6.970  0.142E-01  0.142E-01
  -6.960  0.135E-01  0.135E-01
  -6.950  0.127E-01  0.127E-01
  -6.940  0.120E-01  0.120E-01
  -6.930  0.114E-01  0.114E-01
  -6.920  0.111E-01  0.111E-01
  -6.910  0.109E-01  0.109E-01
  -6.900  0.109E-01  0.109E-01
  -6.890  0.110E-01  0.110E-01
  -6.880  0.113E-01  0.113E-01
  -6.870  0.116E-01  0.116E-01
  -6.860  0.121E-01  0.121E-01
  -6.850  0.127E-01  0.127E-01
  -6.840  0.136E-01  0.136E-01
  -6.830  0.146E-01  0.146E-01
  -6.820  0.158E-01  0.158E-01
  -6.810  0.170E-01  0.170E-01
  -6.800  0.179E-01  0.179E-01
  -6.790  0.185E-01  0.185E-01
  -6.780  0.185E-01  0.185E-01
  -6.770  0.178E-01  0.178E-01
  -6.760  0.164E-01  0.164E-01
  -6.750  0.146E-01  0.146E-01
  -6.740  0.125E-01  0.125E-01
  -6.730  0.105E-01  0.105E-01
  -6.720  0.880E-02  0.880E-02
  -6.710  0.761E-02  0.761E-02
  -6.700  0.702E-02  0.702E-02
  -6.690  0.700E-02  0.700E-02
  -6.680  0.745E-02  0.745E-02
  -6.670  0.820E-02  0.820E-02
  -6.660  0.908E-02  0.908E-02
  -6.650  0.994E-02  0.994E-02
  -6.640  0.107E-01  0.107E-01
  -6.630  0.113E-01  0.113E-01
  -6.620  0.118E-01  0.118E-01
  -6.610  0.122E-01  0.122E-01
  -6.600  0.125E-01  0.125E-01
  -6.590  0.127E-01  0.127E-01
  -6.580  0.128E-01  0.128E-01
  -6.570  0.128E-01  0.128E-01
  -6.560  0.126E-01  0.126E-01
  -6.550  0.122E-01  0.122E-01
  -6.540  0.117E-01  0.117E-01
  -6.530  0.112E-01  0.112E-01
  -6.520  0.106E-01  0.106E-01
  -6.510  0.101E-01  0.101E-01
  -6.500  0.974E-02  0.974E-02
  -6.490  0.961E-02  0.961E-02
  -6.480  0.971E-02  0.971E-02
  -6.470  0.100E-01  0.100E-01
  -6.460  0.105E-01  0.105E-01
  -6.450  0.111E-01  0.111E-01
  -6.440  0.116E-01  0.116E-01
  -6.430  0.121E-01  0.121E-01
  -6.420  0.123E-01  0.123E-01
  -6.410  0.123E-01  0.123E-01
  -6.400  0.120E-01  0.120E-01
  -6.390  0.115E-01  0.115E-01
  -6.380  0.107E-01  0.107E-01
  -6.370  0.979E-02  0.979E-02
  -6.360  0.882E-02  0.882E-02
  -6.350  0.789E-02  0.789E-02
  -6.340  0.709E-02  0.709E-02
  -6.330  0.650E-02  0.650E-02
  -6.320  0.614E-02  0.614E-02
  -6.310  0.602E-02  0.602E-02
  -6.300  0.610E-02  0.610E-02
  -6.290  0.635E-02  0.635E-02
  -6.280  0.672E-02  0.672E-02
  -6.270  0.721E-02  0.721E-02
  -6.260  0.781E-02  0.781E-02
  -6.250  0.854E-02  0.854E-02
  -6.240  0.942E-02  0.942E-02
  -6.230  0.104E-01  0.104E-01
  -6.220  0.116E-01  0.116E-01
  -6.210  0.126E-01  0.126E-01
  -6.200  0.135E-01  0.135E-01
  -6.190  0.141E-01  0.141E-01
  -6.180  0.141E-01  0.141E-01
  -6.170  0.136E-01  0.136E-01
  -6.160  0.126E-01  0.126E-01
  -6.150  0.111E-01  0.111E-01
  -6.140  0.932E-02  0.932E-02
  -6.130  0.755E-02  0.755E-02
  -6.120  0.597E-02  0.597E-02
  -6.110  0.476E-02  0.476E-02
  -6.100  0.402E-02  0.402E-02
  -6.090  0.375E-02  0.375E-02
  -6.080  0.391E-02  0.391E-02
  -6.070  0.439E-02  0.439E-02
  -6.060  0.506E-02  0.506E-02
  -6.050  0.580E-02  0.580E-02
  -6.040  0.652E-02  0.652E-02
  -6.030  0.714E-02  0.714E-02
  -6.020  0.764E-02  0.764E-02
  -6.010  0.802E-02  0.802E-02
  -6.000  0.831E-02  0.831E-02
  -5.990  0.851E-02  0.851E-02
  -5.980  0.866E-02  0.866E-02
  -5.970  0.875E-02  0.875E-02
  -5.960  0.878E-02  0.878E-02
  -5.950  0.874E-02  0.874E-02
  -5.940  0.864E-02  0.864E-02
  -5.930  0.848E-02  0.848E-02
  -5.920  0.830E-02  0.830E-02
  -5.910  0.812E-02  0.812E-02
  -5.900  0.797E-02  0.797E-02
  -5.890  0.787E-02  0.787E-02
  -5.880  0.783E-02  0.783E-02
  -5.870  0.784E-02  0.784E-02
  -5.860  0.785E-02  0.785E-02
  -5.850  0.781E-02  0.781E-02
  -5.840  0.768E-02  0.768E-02
  -5.830  0.741E-02  0.741E-02
  -5.820  0.698E-02  0.698E-02
  -5.810  0.642E-02  0.642E-02
  -5.800  0.575E-02  0.575E-02
  -5.790  0.507E-02  0.507E-02
  -5.780  0.444E-02  0.444E-02
  -5.770  0.395E-02  0.395E-02
  -5.760  0.367E-02  0.367E-02
  -5.750  0.364E-02  0.364E-02
  -5.740  0.386E-02  0.386E-02
  -5.730  0.428E-02  0.428E-02
  -5.720  0.485E-02  0.485E-02
  -5.710  0.548E-02  0.548E-02
  -5.700  0.610E-02  0.610E-02
  -5.690  0.667E-02  0.667E-02
  -5.680  0.715E-02  0.715E-02
  -5.670  0.755E-02  0.755E-02
  -5.660  0.788E-02  0.788E-02
  -5.650  0.814E-02  0.814E-02
  -5.640  0.831E-02  0.831E-02
  -5.630  0.835E-02  0.835E-02
  -5.620  0.822E-02  0.822E-02
  -5.610  0.786E-02  0.786E-02
  -5.600  0.728E-02  0.728E-02
  -5.590  0.649E-02  0.649E-02
  -5.580  0.558E-02  0.558E-02
  -5.570  0.466E-02  0.466E-02
  -5.560  0.385E-02  0.385E-02
  -5.550  0.327E-02  0.327E-02
  -5.540  0.299E-02  0.299E-02
  -5.530  0.304E-02  0.304E-02
  -5.520  0.338E-02  0.338E-02
  -5.510  0.393E-02  0.393E-02
  -5.500  0.457E-02  0.457E-02
  -5.490  0.517E-02  0.517E-02
  -5.480  0.564E-02  0.564E-02
  -5.470  0.588E-02  0.588E-02
  -5.460  0.589E-02  0.589E-02
  -5.450  0.567E-02  0.567E-02
  -5.440  0.529E-02  0.529E-02
  -5.430  0.483E-02  0.483E-02
  -5.420  0.439E-02  0.439E-02
  -5.410  0.405E-02  0.405E-02
  -5.400  0.384E-02  0.384E-02
  -5.390  0.381E-02  0.381E-02
  -5.380  0.393E-02  0.393E-02
  -5.370  0.419E-02  0.419E-02
  -5.360  0.455E-02  0.455E-02
  -5.350  0.496E-02  0.496E-02
  -5.340  0.540E-02  0.540E-02
  -5.330  0.581E-02  0.581E-02
  -5.320  0.613E-02  0.613E-02
  -5.310  0.632E-02  0.632E-02
  -5.300  0.633E-02  0.633E-02
  -5.290  0.612E-02  0.612E-02
  -5.280  0.569E-02  0.569E-02
  -5.270  0.506E-02  0.506E-02
  -5.260  0.430E-02  0.430E-02
  -5.250  0.349E-02  0.349E-02
  -5.240  0.274E-02  0.274E-02
  -5.230  0.213E-02  0.213E-02
  -5.220  0.174E-02  0.174E-02
  -5.210  0.159E-02  0.159E-02
  -5.200  0.167E-02  0.167E-02
  -5.190  0.196E-02  0.196E-02
  -5.180  0.238E-02  0.238E-02
  -5.170  0.288E-02  0.288E-02
  -5.160  0.338E-02  0.338E-02
  -5.150  0.386E-02  0.386E-02
  -5.140  0.427E-02  0.427E-02
  -5.130  0.462E-02  0.462E-02
  -5.120  0.489E-02  0.489E-02
  -5.110  0.509E-02  0.509E-02
  -5.100  0.519E-02  0.519E-02
  -5.090  0.520E-02  0.520E-02
  -5.080  0.508E-02  0.508E-02
  -5.070  0.483E-02  0.483E-02
  -5.060  0.446E-02  0.446E-02
  -5.050  0.401E-02  0.401E-02
  -5.040  0.351E-02  0.351E-02
  -5.030  0.303E-02  0.303E-02
  -5.020  0.262E-02  0.262E-02
  -5.010  0.230E-02  0.230E-02
  -5.000  0.210E-02  0.210E-02
  -4.990  0.200E-02  0.200E-02
  -4.980  0.198E-02  0.198E-02
  -4.970  0.200E-02  0.200E-02
  -4.960  0.205E-02  0.205E-02
  -4.950  0.210E-02  0.210E-02
  -4.940  0.218E-02  0.218E-02
  -4.930  0.229E-02  0.229E-02
  -4.920  0.244E-02  0.244E-02
  -4.910  0.265E-02  0.265E-02
  -4.900  0.289E-02  0.289E-02
  -4.890  0.315E-02  0.315E-02
  -4.880  0.340E-02  0.340E-02
  -4.870  0.360E-02  0.360E-02
  -4.860  0.372E-02  0.372E-02
  -4.850  0.375E-02  0.375E-02
  -4.840  0.368E-02  0.368E-02
  -4.830  0.351E-02  0.351E-02
  -4.820  0.326E-02  0.326E-02
  -4.810  0.293E-02  0.293E-02
  -4.800  0.257E-02  0.257E-02
  -4.790  0.220E-02  0.220E-02
  -4.780  0.187E-02  0.187E-02
  -4.770  0.162E-02  0.162E-02
  -4.760  0.146E-02  0.146E-02
  -4.750  0.141E-02  0.141E-02
  -4.740  0.146E-02  0.146E-02
  -4.730  0.158E-02  0.158E-02
  -4.720  0.174E-02  0.174E-02
  -4.710  0.189E-02  0.189E-02
  -4.700  0.201E-02  0.201E-02
  -4.690  0.207E-02  0.207E-02
  -4.680  0.209E-02  0.209E-02
  -4.670  0.208E-02  0.208E-02
  -4.660  0.206E-02  0.206E-02
  -4.650  0.207E-02  0.207E-02
  -4.640  0.211E-02  0.211E-02
  -4.630  0.218E-02  0.218E-02
  -4.620  0.227E-02  0.227E-02
  -4.610  0.234E-02  0.234E-02
  -4.600  0.237E-02  0.237E-02
  -4.590  0.234E-02  0.234E-02
  -4.580  0.222E-02  0.222E-02
  -4.570  0.204E-02  0.204E-02
  -4.560  0.179E-02  0.179E-02
  -4.550  0.152E-02  0.152E-02
  -4.540  0.126E-02  0.126E-02
  -4.530  0.104E-02  0.104E-02
  -4.520  0.885E-03  0.885E-03
  -4.510  0.815E-03  0.815E-03
  -4.500  0.834E-03  0.834E-03
  -4.490  0.932E-03  0.932E-03
  -4.480  0.109E-02  0.109E-02
  -4.470  0.128E-02  0.128E-02
  -4.460  0.147E-02  0.147E-02
  -4.450  0.163E-02  0.163E-02
  -4.440  0.174E-02  0.174E-02
  -4.430  0.178E-02  0.178E-02
  -4.420  0.176E-02  0.176E-02
  -4.410  0.168E-02  0.168E-02
  -4.400  0.156E-02  0.156E-02
  -4.390  0.140E-02  0.140E-02
  -4.380  0.123E-02  0.123E-02
  -4.370  0.106E-02  0.106E-02
  -4.360  0.917E-03  0.917E-03
  -4.350  0.802E-03  0.802E-03
  -4.340  0.724E-03  0.724E-03
  -4.330  0.686E-03  0.686E-03
  -4.320  0.686E-03  0.686E-03
  -4.310  0.717E-03  0.717E-03
  -4.300  0.771E-03  0.771E-03
  -4.290  0.838E-03  0.838E-03
  -4.280  0.907E-03  0.907E-03
  -4.270  0.965E-03  0.965E-03
  -4.260  0.100E-02  0.100E-02
  -4.250  0.101E-02  0.101E-02
  -4.240  0.977E-03  0.977E-03
  -4.230  0.915E-03  0.915E-03
  -4.220  0.829E-03  0.829E-03
  -4.210  0.731E-03  0.731E-03
  -4.200  0.634E-03  0.634E-03
  -4.190  0.551E-03  0.551E-03
  -4.180  0.492E-03  0.492E-03
  -4.170  0.459E-03  0.459E-03
  -4.160  0.450E-03  0.450E-03
  -4.150  0.460E-03  0.460E-03
  -4.140  0.479E-03  0.479E-03
  -4.130  0.499E-03  0.499E-03
  -4.120  0.510E-03  0.510E-03
  -4.110  0.509E-03  0.509E-03
  -4.100  0.492E-03  0.492E-03
  -4.090  0.461E-03  0.461E-03
  -4.080  0.419E-03  0.419E-03
  -4.070  0.372E-03  0.372E-03
  -4.060  0.326E-03  0.326E-03
  -4.050  0.285E-03  0.285E-03
  -4.040  0.252E-03  0.252E-03
  -4.030  0.229E-03  0.229E-03
  -4.020  0.213E-03  0.213E-03
  -4.010  0.202E-03  0.202E-03
  -4.000  0.193E-03  0.193E-03
  -3.990  0.182E-03  0.182E-03
  -3.980  0.170E-03  0.170E-03
  -3.970  0.155E-03  0.155E-03
  -3.960  0.138E-03  0.138E-03
  -3.950  0.121E-03  0.121E-03
  -3.940  0.105E-03  0.105E-03
  -3.930  0.897E-04  0.897E-04
  -3.920  0.770E-04  0.770E-04
  -3.910  0.664E-04  0.664E-04
  -3.900  0.578E-04  0.578E-04
  -3.890  0.510E-04  0.510E-04
  -3.880  0.459E-04  0.459E-04
  -3.870  0.425E-04  0.425E-04
  -3.860  0.408E-04  0.408E-04
  -3.850  0.406E-04  0.406E-04
  -3.840  0.420E-04  0.420E-04
  -3.830  0.446E-04  0.446E-04
  -3.820  0.480E-04  0.480E-04
  -3.810  0.520E-04  0.520E-04
  -3.800  0.561E-04  0.561E-04
  -3.790  0.601E-04  0.601E-04
  -3.780  0.637E-04  0.637E-04
  -3.770  0.668E-04  0.668E-04
  -3.760  0.693E-04  0.693E-04
  -3.750  0.710E-04  0.710E-04
  -3.740  0.719E-04  0.719E-04
  -3.730  0.720E-04  0.720E-04
  -3.720  0.711E-04  0.711E-04
  -3.710  0.694E-04  0.694E-04
  -3.700  0.668E-04  0.668E-04
  -3.690  0.635E-04  0.635E-04
  -3.680  0.597E-04  0.597E-04
  -3.670  0.557E-04  0.557E-04
  -3.660  0.518E-04  0.518E-04
  -3.650  0.483E-04  0.483E-04
  -3.640  0.455E-04  0.455E-04
  -3.630  0.436E-04  0.436E-04
  -3.620  0.427E-04  0.427E-04
  -3.610  0.427E-04  0.427E-04
  -3.600  0.437E-04  0.437E-04
  -3.590  0.456E-04  0.456E-04
  -3.580  0.482E-04  0.482E-04
  -3.570  0.514E-04  0.514E-04
  -3.560  0.550E-04  0.550E-04
  -3.550  0.589E-04  0.589E-04
  -3.540  0.627E-04  0.627E-04
  -3.530  0.661E-04  0.661E-04
  -3.520  0.686E-04  0.686E-04
  -3.510  0.699E-04  0.699E-04
  -3.500  0.699E-04  0.699E-04
  -3.490  0.684E-04  0.684E-04
  -3.480  0.657E-04  0.657E-04
  -3.470  0.622E-04  0.622E-04
  -3.460  0.582E-04  0.582E-04
  -3.450  0.541E-04  0.541E-04
  -3.440  0.505E-04  0.505E-04
  -3.430  0.474E-04  0.474E-04
  -3.420  0.451E-04  0.451E-04
  -3.410  0.436E-04  0.436E-04
  -3.400  0.428E-04  0.428E-04
  -3.390  0.428E-04  0.428E-04
  -3.380  0.435E-04  0.435E-04
  -3.370  0.449E-04  0.449E-04
  -3.360  0.470E-04  0.470E-04
  -3.350  0.498E-04  0.498E-04
  -3.340  0.531E-04  0.531E-04
  -3.330  0.568E-04  0.568E-04
  -3.320  0.606E-04  0.606E-04
  -3.310  0.641E-04  0.641E-04
  -3.300  0.671E-04  0.671E-04
  -3.290  0.692E-04  0.692E-04
  -3.280  0.703E-04  0.703E-04
  -3.270  0.702E-04  0.702E-04
  -3.260  0.689E-04  0.689E-04
  -3.250  0.667E-04  0.667E-04
  -3.240  0.638E-04  0.638E-04
  -3.230  0.604E-04  0.604E-04
  -3.220  0.569E-04  0.569E-04
  -3.210  0.537E-04  0.537E-04
  -3.200  0.510E-04  0.510E-04
  -3.190  0.491E-04  0.491E-04
  -3.180  0.479E-04  0.479E-04
  -3.170  0.476E-04  0.476E-04
  -3.160  0.481E-04  0.481E-04
  -3.150  0.492E-04  0.492E-04
  -3.140  0.508E-04  0.508E-04
  -3.130  0.528E-04  0.528E-04
  -3.120  0.550E-04  0.550E-04
  -3.110  0.572E-04  0.572E-04
  -3.100  0.590E-04  0.590E-04
  -3.090  0.604E-04  0.604E-04
  -3.080  0.609E-04  0.609E-04
  -3.070  0.605E-04  0.605E-04
  -3.060  0.590E-04  0.590E-04
  -3.050  0.565E-04  0.565E-04
  -3.040  0.529E-04  0.529E-04
  -3.030  0.485E-04  0.485E-04
  -3.020  0.435E-04  0.435E-04
  -3.010  0.383E-04  0.383E-04
  -3.000  0.333E-04  0.333E-04
  -2.990  0.287E-04  0.287E-04
  -2.980  0.250E-04  0.250E-04
  -2.970  0.223E-04  0.223E-04
  -2.960  0.208E-04  0.208E-04
  -2.950  0.206E-04  0.206E-04
  -2.940  0.213E-04  0.213E-04
  -2.930  0.226E-04  0.226E-04
  -2.920  0.243E-04  0.243E-04
  -2.910  0.257E-04  0.257E-04
  -2.900  0.267E-04  0.267E-04
  -2.890  0.270E-04  0.270E-04
  -2.880  0.265E-04  0.265E-04
  -2.870  0.254E-04  0.254E-04
  -2.860  0.239E-04  0.239E-04
  -2.850  0.222E-04  0.222E-04
  -2.840  0.205E-04  0.205E-04
  -2.830  0.191E-04  0.191E-04
  -2.820  0.179E-04  0.179E-04
  -2.810  0.168E-04  0.168E-04
  -2.800  0.159E-04  0.159E-04
  -2.790  0.151E-04  0.151E-04
  -2.780  0.144E-04  0.144E-04
  -2.770  0.137E-04  0.137E-04
  -2.760  0.133E-04  0.133E-04
  -2.750  0.130E-04  0.130E-04
  -2.740  0.129E-04  0.129E-04
  -2.730  0.129E-04  0.129E-04
  -2.720  0.131E-04  0.131E-04
  -2.710  0.133E-04  0.133E-04
  -2.700  0.134E-04  0.134E-04
  -2.690  0.133E-04  0.133E-04
  -2.680  0.130E-04  0.130E-04
  -2.670  0.125E-04  0.125E-04
  -2.660  0.118E-04  0.118E-04
  -2.650  0.110E-04  0.110E-04
  -2.640  0.102E-04  0.102E-04
  -2.630  0.939E-05  0.939E-05
  -2.620  0.861E-05  0.861E-05
  -2.610  0.790E-05  0.790E-05
  -2.600  0.727E-05  0.727E-05
  -2.590  0.674E-05  0.674E-05
  -2.580  0.633E-05  0.633E-05
  -2.570  0.607E-05  0.607E-05
  -2.560  0.598E-05  0.598E-05
  -2.550  0.603E-05  0.603E-05
  -2.540  0.621E-05  0.621E-05
  -2.530  0.645E-05  0.645E-05
  -2.520  0.667E-05  0.667E-05
  -2.510  0.681E-05  0.681E-05
  -2.500  0.679E-05  0.679E-05
  -2.490  0.659E-05  0.659E-05
  -2.480  0.619E-05  0.619E-05
  -2.470  0.563E-05  0.563E-05
  -2.460  0.495E-05  0.495E-05
  -2.450  0.424E-05  0.424E-05
  -2.440  0.357E-05  0.357E-05
  -2.430  0.299E-05  0.299E-05
  -2.420  0.254E-05  0.254E-05
  -2.410  0.225E-05  0.225E-05
  -2.400  0.208E-05  0.208E-05
  -2.390  0.202E-05  0.202E-05
  -2.380  0.202E-05  0.202E-05
  -2.370  0.205E-05  0.205E-05
  -2.360  0.207E-05  0.207E-05
  -2.350  0.205E-05  0.205E-05
  -2.340  0.200E-05  0.200E-05
  -2.330  0.191E-05  0.191E-05
  -2.320  0.179E-05  0.179E-05
  -2.310  0.165E-05  0.165E-05
  -2.300  0.148E-05  0.148E-05
  -2.290  0.130E-05  0.130E-05
  -2.280  0.110E-05  0.110E-05
  -2.270  0.897E-06  0.897E-06
  -2.260  0.691E-06  0.691E-06
  -2.250  0.494E-06  0.494E-06
  -2.240  0.318E-06  0.318E-06
  -2.230  0.172E-06  0.172E-06
  -2.220  0.628E-07  0.628E-07
  -2.210 -0.736E-08 -0.736E-08
  -2.200 -0.416E-07 -0.416E-07
  -2.190 -0.464E-07 -0.464E-07
  -2.180 -0.303E-07 -0.303E-07
  -2.170 -0.170E-08 -0.170E-08
  -2.160  0.322E-07  0.322E-07
  -2.150  0.663E-07  0.663E-07
  -2.140  0.975E-07  0.975E-07
  -2.130  0.124E-06  0.124E-06
  -2.120  0.146E-06  0.146E-06
  -2.110  0.162E-06  0.162E-06
  -2.100  0.171E-06  0.171E-06
  -2.090  0.174E-06  0.174E-06
  -2.080  0.170E-06  0.170E-06
  -2.070  0.159E-06  0.159E-06
  -2.060  0.142E-06  0.142E-06
  -2.050  0.120E-06  0.120E-06
  -2.040  0.951E-07  0.951E-07
  -2.030  0.704E-07  0.704E-07
  -2.020  0.478E-07  0.478E-07
  -2.010  0.292E-07  0.292E-07
  -2.000  0.156E-07  0.156E-07
  -1.990  0.707E-08  0.707E-08
  -1.980  0.316E-08  0.316E-08
  -1.970  0.286E-08  0.286E-08
  -1.960  0.501E-08  0.501E-08
  -1.950  0.859E-08  0.859E-08
  -1.940  0.128E-07  0.128E-07
  -1.930  0.170E-07  0.170E-07
  -1.920  0.208E-07  0.208E-07
  -1.910  0.240E-07  0.240E-07
  -1.900  0.263E-07  0.263E-07
  -1.890  0.274E-07  0.274E-07
  -1.880  0.273E-07  0.273E-07
  -1.870  0.259E-07  0.259E-07
  -1.860  0.234E-07  0.234E-07
  -1.850  0.201E-07  0.201E-07
  -1.840  0.167E-07  0.167E-07
  -1.830  0.135E-07  0.135E-07
  -1.820  0.112E-07  0.112E-07
  -1.810  0.987E-08  0.987E-08
  -1.800  0.976E-08  0.976E-08
  -1.790  0.107E-07  0.107E-07
  -1.780  0.126E-07  0.126E-07
  -1.770  0.149E-07  0.149E-07
  -1.760  0.173E-07  0.173E-07
  -1.750  0.194E-07  0.194E-07
  -1.740  0.211E-07  0.211E-07
  -1.730  0.221E-07  0.221E-07
  -1.720  0.226E-07  0.226E-07
  -1.710  0.225E-07  0.225E-07
  -1.700  0.221E-07  0.221E-07
  -1.690  0.213E-07  0.213E-07
  -1.680  0.204E-07  0.204E-07
  -1.670  0.193E-07  0.193E-07
  -1.660  0.182E-07  0.182E-07
  -1.650  0.169E-07  0.169E-07
  -1.640  0.157E-07  0.157E-07
  -1.630  0.147E-07  0.147E-07
  -1.620  0.139E-07  0.139E-07
  -1.610  0.135E-07  0.135E-07
  -1.600  0.136E-07  0.136E-07
  -1.590  0.144E-07  0.144E-07
  -1.580  0.158E-07  0.158E-07
  -1.570  0.176E-07  0.176E-07
  -1.560  0.196E-07  0.196E-07
  -1.550  0.215E-07  0.215E-07
  -1.540  0.229E-07  0.229E-07
  -1.530  0.234E-07  0.234E-07
  -1.520  0.228E-07  0.228E-07
  -1.510  0.212E-07  0.212E-07
  -1.500  0.188E-07  0.188E-07
  -1.490  0.160E-07  0.160E-07
  -1.480  0.133E-07  0.133E-07
  -1.470  0.112E-07  0.112E-07
  -1.460  0.103E-07  0.103E-07
  -1.450  0.107E-07  0.107E-07
  -1.440  0.123E-07  0.123E-07
  -1.430  0.150E-07  0.150E-07
  -1.420  0.182E-07  0.182E-07
  -1.410  0.215E-07  0.215E-07
  -1.400  0.243E-07  0.243E-07
  -1.390  0.264E-07  0.264E-07
  -1.380  0.275E-07  0.275E-07
  -1.370  0.277E-07  0.277E-07
  -1.360  0.270E-07  0.270E-07
  -1.350  0.257E-07  0.257E-07
  -1.340  0.239E-07  0.239E-07
  -1.330  0.218E-07  0.218E-07
  -1.320  0.195E-07  0.195E-07
  -1.310  0.170E-07  0.170E-07
  -1.300  0.142E-07  0.142E-07
  -1.290  0.114E-07  0.114E-07
  -1.280  0.852E-08  0.852E-08
  -1.270  0.584E-08  0.584E-08
  -1.260  0.357E-08  0.357E-08
  -1.250  0.195E-08  0.195E-08
  -1.240  0.115E-08  0.115E-08
  -1.230  0.131E-08  0.131E-08
  -1.220  0.249E-08  0.249E-08
  -1.210  0.464E-08  0.464E-08
  -1.200  0.764E-08  0.764E-08
  -1.190  0.113E-07  0.113E-07
  -1.180  0.152E-07  0.152E-07
  -1.170  0.189E-07  0.189E-07
  -1.160  0.221E-07  0.221E-07
  -1.150  0.243E-07  0.243E-07
  -1.140  0.250E-07  0.250E-07
  -1.130  0.242E-07  0.242E-07
  -1.120  0.219E-07  0.219E-07
  -1.110  0.184E-07  0.184E-07
  -1.100  0.141E-07  0.141E-07
  -1.090  0.955E-08  0.955E-08
  -1.080  0.534E-08  0.534E-08
  -1.070  0.185E-08  0.185E-08
  -1.060 -0.706E-09 -0.706E-09
  -1.050 -0.229E-08 -0.229E-08
  -1.040 -0.300E-08 -0.300E-08
  -1.030 -0.305E-08 -0.305E-08
  -1.020 -0.266E-08 -0.266E-08
  -1.010 -0.201E-08 -0.201E-08
  -1.000 -0.125E-08 -0.125E-08
  -0.990 -0.440E-09 -0.440E-09
  -0.980  0.396E-09  0.396E-09
  -0.970  0.128E-08  0.128E-08
  -0.960  0.223E-08  0.223E-08
  -0.950  0.325E-08  0.325E-08
  -0.940  0.432E-08  0.432E-08
  -0.930  0.536E-08  0.536E-08
  -0.920  0.628E-08  0.628E-08
  -0.910  0.695E-08  0.695E-08
  -0.900  0.728E-08  0.728E-08
  -0.890  0.718E-08  0.718E-08
  -0.880  0.665E-08  0.665E-08
  -0.870  0.573E-08  0.573E-08
  -0.860  0.455E-08  0.455E-08
  -0.850  0.325E-08  0.325E-08
  -0.840  0.198E-08  0.198E-08
  -0.830  0.885E-09  0.885E-09
  -0.820  0.401E-10  0.401E-10
  -0.810 -0.522E-09 -0.522E-09
  -0.800 -0.820E-09 -0.820E-09
  -0.790 -0.902E-09 -0.902E-09
  -0.780 -0.835E-09 -0.835E-09
  -0.770 -0.675E-09 -0.675E-09
  -0.760 -0.466E-09 -0.466E-09
  -0.750 -0.224E-09 -0.224E-09
  -0.740  0.580E-10  0.580E-10
  -0.730  0.415E-09  0.415E-09
  -0.720  0.899E-09  0.899E-09
  -0.710  0.158E-08  0.158E-08
  -0.700  0.252E-08  0.252E-08
  -0.690  0.378E-08  0.378E-08
  -0.680  0.538E-08  0.538E-08
  -0.670  0.729E-08  0.729E-08
  -0.660  0.938E-08  0.938E-08
  -0.650  0.115E-07  0.115E-07
  -0.640  0.134E-07  0.134E-07
  -0.630  0.147E-07  0.147E-07
  -0.620  0.154E-07  0.154E-07
  -0.610  0.151E-07  0.151E-07
  -0.600  0.139E-07  0.139E-07
  -0.590  0.120E-07  0.120E-07
  -0.580  0.952E-08  0.952E-08
  -0.570  0.684E-08  0.684E-08
  -0.560  0.430E-08  0.430E-08
  -0.550  0.220E-08  0.220E-08
  -0.540  0.737E-09  0.737E-09
  -0.530 -0.266E-11 -0.266E-11
  -0.520 -0.312E-10 -0.312E-10
  -0.510  0.563E-09  0.563E-09
  -0.500  0.165E-08  0.165E-08
  -0.490  0.308E-08  0.308E-08
  -0.480  0.473E-08  0.473E-08
  -0.470  0.646E-08  0.646E-08
  -0.460  0.818E-08  0.818E-08
  -0.450  0.980E-08  0.980E-08
  -0.440  0.113E-07  0.113E-07
  -0.430  0.126E-07  0.126E-07
  -0.420  0.136E-07  0.136E-07
  -0.410  0.144E-07  0.144E-07
  -0.400  0.149E-07  0.149E-07
  -0.390  0.151E-07  0.151E-07
  -0.380  0.149E-07  0.149E-07
  -0.370  0.143E-07  0.143E-07
  -0.360  0.133E-07  0.133E-07
  -0.350  0.118E-07  0.118E-07
  -0.340  0.101E-07  0.101E-07
  -0.330  0.827E-08  0.827E-08
  -0.320  0.646E-08  0.646E-08
  -0.310  0.491E-08  0.491E-08
  -0.300  0.376E-08  0.376E-08
  -0.290  0.312E-08  0.312E-08
  -0.280  0.299E-08  0.299E-08
  -0.270  0.328E-08  0.328E-08
  -0.260  0.387E-08  0.387E-08
  -0.250  0.460E-08  0.460E-08
  -0.240  0.531E-08  0.531E-08
  -0.230  0.594E-08  0.594E-08
  -0.220  0.646E-08  0.646E-08
  -0.210  0.693E-08  0.693E-08
  -0.200  0.744E-08  0.744E-08
  -0.190  0.807E-08  0.807E-08
  -0.180  0.888E-08  0.888E-08
  -0.170  0.984E-08  0.984E-08
  -0.160  0.109E-07  0.109E-07
  -0.150  0.118E-07  0.118E-07
  -0.140  0.125E-07  0.125E-07
  -0.130  0.128E-07  0.128E-07
  -0.120  0.126E-07  0.126E-07
  -0.110  0.120E-07  0.120E-07
  -0.100  0.109E-07  0.109E-07
  -0.090  0.953E-08  0.953E-08
  -0.080  0.799E-08  0.799E-08
  -0.070  0.644E-08  0.644E-08
  -0.060  0.503E-08  0.503E-08
  -0.050  0.384E-08  0.384E-08
  -0.040  0.291E-08  0.291E-08
  -0.030  0.224E-08  0.224E-08
  -0.020  0.179E-08  0.179E-08
  -0.010  0.151E-08  0.151E-08
   0.000  0.135E-08  0.135E-08
   0.010  0.130E-08  0.130E-08
   0.020  0.138E-08  0.138E-08
   0.030  0.161E-08  0.161E-08
   0.040  0.206E-08  0.206E-08
   0.050  0.275E-08  0.275E-08
   0.060  0.371E-08  0.371E-08
   0.070  0.490E-08  0.490E-08
   0.080  0.623E-08  0.623E-08
   0.090  0.758E-08  0.758E-08
   0.100  0.881E-08  0.881E-08
   0.110  0.975E-08  0.975E-08
   0.120  0.103E-07  0.103E-07
   0.130  0.104E-07  0.104E-07
   0.140  0.992E-08  0.992E-08
   0.150  0.906E-08  0.906E-08
   0.160  0.788E-08  0.788E-08
   0.170  0.654E-08  0.654E-08
   0.180  0.518E-08  0.518E-08
   0.190  0.393E-08  0.393E-08
   0.200  0.288E-08  0.288E-08
   0.210  0.207E-08  0.207E-08
   0.220  0.151E-08  0.151E-08
   0.230  0.117E-08  0.117E-08
   0.240  0.102E-08  0.102E-08
   0.250  0.101E-08  0.101E-08
   0.260  0.113E-08  0.113E-08
   0.270  0.135E-08  0.135E-08
   0.280  0.169E-08  0.169E-08
   0.290  0.216E-08  0.216E-08
   0.300  0.277E-08  0.277E-08
   0.310  0.355E-08  0.355E-08
   0.320  0.452E-08  0.452E-08
   0.330  0.565E-08  0.565E-08
   0.340  0.694E-08  0.694E-08
   0.350  0.833E-08  0.833E-08
   0.360  0.976E-08  0.976E-08
   0.370  0.112E-07  0.112E-07
   0.380  0.124E-07  0.124E-07
   0.390  0.136E-07  0.136E-07
   0.400  0.145E-07  0.145E-07
   0.410  0.151E-07  0.151E-07
   0.420  0.155E-07  0.155E-07
   0.430  0.157E-07  0.157E-07
   0.440  0.157E-07  0.157E-07
   0.450  0.156E-07  0.156E-07
   0.460  0.155E-07  0.155E-07
   0.470  0.155E-07  0.155E-07
   0.480  0.156E-07  0.156E-07
   0.490  0.158E-07  0.158E-07
   0.500  0.162E-07  0.162E-07
   0.510  0.168E-07  0.168E-07
   0.520  0.176E-07  0.176E-07
   0.530  0.187E-07  0.187E-07
   0.540  0.202E-07  0.202E-07
   0.550  0.225E-07  0.225E-07
   0.560  0.256E-07  0.256E-07
   0.570  0.300E-07  0.300E-07
   0.580  0.357E-07  0.357E-07
   0.590  0.426E-07  0.426E-07
   0.600  0.507E-07  0.507E-07
   0.610  0.593E-07  0.593E-07
   0.620  0.678E-07  0.678E-07
   0.630  0.756E-07  0.756E-07
   0.640  0.820E-07  0.820E-07
   0.650  0.869E-07  0.869E-07
   0.660  0.903E-07  0.903E-07
   0.670  0.932E-07  0.932E-07
   0.680  0.966E-07  0.966E-07
   0.690  0.102E-06  0.102E-06
   0.700  0.112E-06  0.112E-06
   0.710  0.127E-06  0.127E-06
   0.720  0.148E-06  0.148E-06
   0.730  0.175E-06  0.175E-06
   0.740  0.210E-06  0.210E-06
   0.750  0.251E-06  0.251E-06
   0.760  0.297E-06  0.297E-06
   0.770  0.349E-06  0.349E-06
   0.780  0.403E-06  0.403E-06
   0.790  0.460E-06  0.460E-06
   0.800  0.516E-06  0.516E-06
   0.810  0.568E-06  0.568E-06
   0.820  0.613E-06  0.613E-06
   0.830  0.647E-06  0.647E-06
   0.840  0.667E-06  0.667E-06
   0.850  0.670E-06  0.670E-06
   0.860  0.657E-06  0.657E-06
   0.870  0.629E-06  0.629E-06
   0.880  0.590E-06  0.590E-06
   0.890  0.544E-06  0.544E-06
   0.900  0.497E-06  0.497E-06
   0.910  0.451E-06  0.451E-06
   0.920  0.409E-06  0.409E-06
   0.930  0.374E-06  0.374E-06
   0.940  0.346E-06  0.346E-06
   0.950  0.325E-06  0.325E-06
   0.960  0.309E-06  0.309E-06
   0.970  0.298E-06  0.298E-06
   0.980  0.290E-06  0.290E-06
   0.990  0.285E-06  0.285E-06
   1.000  0.281E-06  0.281E-06
   1.010  0.277E-06  0.277E-06
   1.020  0.271E-06  0.271E-06
   1.030  0.265E-06  0.265E-06
   1.040  0.258E-06  0.258E-06
   1.050  0.250E-06  0.250E-06
   1.060  0.244E-06  0.244E-06
   1.070  0.240E-06  0.240E-06
   1.080  0.239E-06  0.239E-06
   1.090  0.241E-06  0.241E-06
   1.100  0.242E-06  0.242E-06
   1.110  0.242E-06  0.242E-06
   1.120  0.239E-06  0.239E-06
   1.130  0.232E-06  0.232E-06
   1.140  0.223E-06  0.223E-06
   1.150  0.211E-06  0.211E-06
   1.160  0.201E-06  0.201E-06
   1.170  0.194E-06  0.194E-06
   1.180  0.192E-06  0.192E-06
   1.190  0.194E-06  0.194E-06
   1.200  0.201E-06  0.201E-06
   1.210  0.208E-06  0.208E-06
   1.220  0.214E-06  0.214E-06
   1.230  0.216E-06  0.216E-06
   1.240  0.213E-06  0.213E-06
   1.250  0.205E-06  0.205E-06
   1.260  0.192E-06  0.192E-06
   1.270  0.178E-06  0.178E-06
   1.280  0.164E-06  0.164E-06
   1.290  0.153E-06  0.153E-06
   1.300  0.148E-06  0.148E-06
   1.310  0.150E-06  0.150E-06
   1.320  0.157E-06  0.157E-06
   1.330  0.169E-06  0.169E-06
   1.340  0.183E-06  0.183E-06
   1.350  0.195E-06  0.195E-06
   1.360  0.202E-06  0.202E-06
   1.370  0.203E-06  0.203E-06
   1.380  0.197E-06  0.197E-06
   1.390  0.183E-06  0.183E-06
   1.400  0.166E-06  0.166E-06
   1.410  0.147E-06  0.147E-06
   1.420  0.132E-06  0.132E-06
   1.430  0.121E-06  0.121E-06
   1.440  0.119E-06  0.119E-06
   1.450  0.124E-06  0.124E-06
   1.460  0.136E-06  0.136E-06
   1.470  0.152E-06  0.152E-06
   1.480  0.169E-06  0.169E-06
   1.490  0.185E-06  0.185E-06
   1.500  0.194E-06  0.194E-06
   1.510  0.197E-06  0.197E-06
   1.520  0.192E-06  0.192E-06
   1.530  0.181E-06  0.181E-06
   1.540  0.164E-06  0.164E-06
   1.550  0.145E-06  0.145E-06
   1.560  0.127E-06  0.127E-06
   1.570  0.112E-06  0.112E-06
   1.580  0.102E-06  0.102E-06
   1.590  0.986E-07  0.986E-07
   1.600  0.102E-06  0.102E-06
   1.610  0.110E-06  0.110E-06
   1.620  0.123E-06  0.123E-06
   1.630  0.139E-06  0.139E-06
   1.640  0.154E-06  0.154E-06
   1.650  0.168E-06  0.168E-06
   1.660  0.178E-06  0.178E-06
   1.670  0.182E-06  0.182E-06
   1.680  0.180E-06  0.180E-06
   1.690  0.171E-06  0.171E-06
   1.700  0.156E-06  0.156E-06
   1.710  0.138E-06  0.138E-06
   1.720  0.119E-06  0.119E-06
   1.730  0.102E-06  0.102E-06
   1.740  0.898E-07  0.898E-07
   1.750  0.842E-07  0.842E-07
   1.760  0.860E-07  0.860E-07
   1.770  0.951E-07  0.951E-07
   1.780  0.110E-06  0.110E-06
   1.790  0.129E-06  0.129E-06
   1.800  0.149E-06  0.149E-06
   1.810  0.167E-06  0.167E-06
   1.820  0.181E-06  0.181E-06
   1.830  0.189E-06  0.189E-06
   1.840  0.189E-06  0.189E-06
   1.850  0.182E-06  0.182E-06
   1.860  0.168E-06  0.168E-06
   1.870  0.150E-06  0.150E-06
   1.880  0.129E-06  0.129E-06
   1.890  0.109E-06  0.109E-06
   1.900  0.928E-07  0.928E-07
   1.910  0.814E-07  0.814E-07
   1.920  0.759E-07  0.759E-07
   1.930  0.763E-07  0.763E-07
   1.940  0.820E-07  0.820E-07
   1.950  0.919E-07  0.919E-07
   1.960  0.105E-06  0.105E-06
   1.970  0.119E-06  0.119E-06
   1.980  0.135E-06  0.135E-06
   1.990  0.149E-06  0.149E-06
   2.000  0.161E-06  0.161E-06
   2.010  0.170E-06  0.170E-06
   2.020  0.173E-06  0.173E-06
   2.030  0.171E-06  0.171E-06
   2.040  0.163E-06  0.163E-06
   2.050  0.150E-06  0.150E-06
   2.060  0.133E-06  0.133E-06
   2.070  0.115E-06  0.115E-06
   2.080  0.981E-07  0.981E-07
   2.090  0.853E-07  0.853E-07
   2.100  0.784E-07  0.784E-07
   2.110  0.784E-07  0.784E-07
   2.120  0.859E-07  0.859E-07
   2.130  0.101E-06  0.101E-06
   2.140  0.126E-06  0.126E-06
   2.150  0.163E-06  0.163E-06
   2.160  0.225E-06  0.225E-06
   2.170  0.335E-06  0.335E-06
   2.180  0.542E-06  0.542E-06
   2.190  0.937E-06  0.937E-06
   2.200  0.168E-05  0.168E-05
   2.210  0.301E-05  0.301E-05
   2.220  0.533E-05  0.533E-05
   2.230  0.919E-05  0.919E-05
   2.240  0.153E-04  0.153E-04
   2.250  0.245E-04  0.245E-04
   2.260  0.378E-04  0.378E-04
   2.270  0.559E-04  0.559E-04
   2.280  0.796E-04  0.796E-04
   2.290  0.109E-03  0.109E-03
   2.300  0.143E-03  0.143E-03
   2.310  0.181E-03  0.181E-03
   2.320  0.220E-03  0.220E-03
   2.330  0.259E-03  0.259E-03
   2.340  0.294E-03  0.294E-03
   2.350  0.322E-03  0.322E-03
   2.360  0.343E-03  0.343E-03
   2.370  0.355E-03  0.355E-03
   2.380  0.358E-03  0.358E-03
   2.390  0.353E-03  0.353E-03
   2.400  0.343E-03  0.343E-03
   2.410  0.329E-03  0.329E-03
   2.420  0.312E-03  0.312E-03
   2.430  0.295E-03  0.295E-03
   2.440  0.279E-03  0.279E-03
   2.450  0.263E-03  0.263E-03
   2.460  0.250E-03  0.250E-03
   2.470  0.237E-03  0.237E-03
   2.480  0.227E-03  0.227E-03
   2.490  0.217E-03  0.217E-03
   2.500  0.208E-03  0.208E-03
   2.510  0.199E-03  0.199E-03
   2.520  0.191E-03  0.191E-03
   2.530  0.183E-03  0.183E-03
   2.540  0.176E-03  0.176E-03
   2.550  0.170E-03  0.170E-03
   2.560  0.163E-03  0.163E-03
   2.570  0.158E-03  0.158E-03
   2.580  0.152E-03  0.152E-03
   2.590  0.146E-03  0.146E-03
   2.600  0.140E-03  0.140E-03
   2.610  0.135E-03  0.135E-03
   2.620  0.130E-03  0.130E-03
   2.630  0.125E-03  0.125E-03
   2.640  0.122E-03  0.122E-03
   2.650  0.119E-03  0.119E-03
   2.660  0.117E-03  0.117E-03
   2.670  0.114E-03  0.114E-03
   2.680  0.111E-03  0.111E-03
   2.690  0.107E-03  0.107E-03
   2.700  0.103E-03  0.103E-03
   2.710  0.987E-04  0.987E-04
   2.720  0.950E-04  0.950E-04
   2.730  0.920E-04  0.920E-04
   2.740  0.900E-04  0.900E-04
   2.750  0.888E-04  0.888E-04
   2.760  0.878E-04  0.878E-04
   2.770  0.868E-04  0.868E-04
   2.780  0.852E-04  0.852E-04
   2.790  0.829E-04  0.829E-04
   2.800  0.800E-04  0.800E-04
   2.810  0.769E-04  0.769E-04
   2.820  0.738E-04  0.738E-04
   2.830  0.711E-04  0.711E-04
   2.840  0.689E-04  0.689E-04
   2.850  0.672E-04  0.672E-04
   2.860  0.658E-04  0.658E-04
   2.870  0.642E-04  0.642E-04
   2.880  0.621E-04  0.621E-04
   2.890  0.594E-04  0.594E-04
   2.900  0.560E-04  0.560E-04
   2.910  0.520E-04  0.520E-04
   2.920  0.478E-04  0.478E-04
   2.930  0.437E-04  0.437E-04
   2.940  0.401E-04  0.401E-04
   2.950  0.372E-04  0.372E-04
   2.960  0.351E-04  0.351E-04
   2.970  0.337E-04  0.337E-04
   2.980  0.328E-04  0.328E-04
   2.990  0.320E-04  0.320E-04
   3.000  0.312E-04  0.312E-04
   3.010  0.302E-04  0.302E-04
   3.020  0.288E-04  0.288E-04
   3.030  0.272E-04  0.272E-04
   3.040  0.254E-04  0.254E-04
   3.050  0.236E-04  0.236E-04
   3.060  0.218E-04  0.218E-04
   3.070  0.202E-04  0.202E-04
   3.080  0.187E-04  0.187E-04
   3.090  0.174E-04  0.174E-04
   3.100  0.164E-04  0.164E-04
   3.110  0.156E-04  0.156E-04
   3.120  0.150E-04  0.150E-04
   3.130  0.147E-04  0.147E-04
   3.140  0.146E-04  0.146E-04
   3.150  0.145E-04  0.145E-04
   3.160  0.145E-04  0.145E-04
   3.170  0.143E-04  0.143E-04
   3.180  0.140E-04  0.140E-04
   3.190  0.134E-04  0.134E-04
   3.200  0.126E-04  0.126E-04
   3.210  0.117E-04  0.117E-04
   3.220  0.108E-04  0.108E-04
   3.230  0.998E-05  0.998E-05
   3.240  0.947E-05  0.947E-05
   3.250  0.931E-05  0.931E-05
   3.260  0.950E-05  0.950E-05
   3.270  0.997E-05  0.997E-05
   3.280  0.106E-04  0.106E-04
   3.290  0.112E-04  0.112E-04
   3.300  0.115E-04  0.115E-04
   3.310  0.116E-04  0.116E-04
   3.320  0.113E-04  0.113E-04
   3.330  0.107E-04  0.107E-04
   3.340  0.998E-05  0.998E-05
   3.350  0.935E-05  0.935E-05
   3.360  0.899E-05  0.899E-05
   3.370  0.906E-05  0.906E-05
   3.380  0.962E-05  0.962E-05
   3.390  0.106E-04  0.106E-04
   3.400  0.120E-04  0.120E-04
   3.410  0.133E-04  0.133E-04
   3.420  0.146E-04  0.146E-04
   3.430  0.154E-04  0.154E-04
   3.440  0.157E-04  0.157E-04
   3.450  0.155E-04  0.155E-04
   3.460  0.147E-04  0.147E-04
   3.470  0.137E-04  0.137E-04
   3.480  0.127E-04  0.127E-04
   3.490  0.119E-04  0.119E-04
   3.500  0.116E-04  0.116E-04
   3.510  0.119E-04  0.119E-04
   3.520  0.129E-04  0.129E-04
   3.530  0.144E-04  0.144E-04
   3.540  0.163E-04  0.163E-04
   3.550  0.182E-04  0.182E-04
   3.560  0.200E-04  0.200E-04
   3.570  0.214E-04  0.214E-04
   3.580  0.221E-04  0.221E-04
   3.590  0.222E-04  0.222E-04
   3.600  0.217E-04  0.217E-04
   3.610  0.208E-04  0.208E-04
   3.620  0.197E-04  0.197E-04
   3.630  0.188E-04  0.188E-04
   3.640  0.183E-04  0.183E-04
   3.650  0.184E-04  0.184E-04
   3.660  0.192E-04  0.192E-04
   3.670  0.205E-04  0.205E-04
   3.680  0.223E-04  0.223E-04
   3.690  0.242E-04  0.242E-04
   3.700  0.260E-04  0.260E-04
   3.710  0.274E-04  0.274E-04
   3.720  0.282E-04  0.282E-04
   3.730  0.283E-04  0.283E-04
   3.740  0.278E-04  0.278E-04
   3.750  0.268E-04  0.268E-04
   3.760  0.257E-04  0.257E-04
   3.770  0.248E-04  0.248E-04
   3.780  0.244E-04  0.244E-04
   3.790  0.246E-04  0.246E-04
   3.800  0.257E-04  0.257E-04
   3.810  0.276E-04  0.276E-04
   3.820  0.300E-04  0.300E-04
   3.830  0.327E-04  0.327E-04
   3.840  0.354E-04  0.354E-04
   3.850  0.379E-04  0.379E-04
   3.860  0.400E-04  0.400E-04
   3.870  0.416E-04  0.416E-04
   3.880  0.427E-04  0.427E-04
   3.890  0.436E-04  0.436E-04
   3.900  0.443E-04  0.443E-04
   3.910  0.453E-04  0.453E-04
   3.920  0.467E-04  0.467E-04
   3.930  0.487E-04  0.487E-04
   3.940  0.513E-04  0.513E-04
   3.950  0.546E-04  0.546E-04
   3.960  0.584E-04  0.584E-04
   3.970  0.625E-04  0.625E-04
   3.980  0.665E-04  0.665E-04
   3.990  0.704E-04  0.704E-04
   4.000  0.737E-04  0.737E-04
   4.010  0.761E-04  0.761E-04
   4.020  0.774E-04  0.774E-04
   4.030  0.773E-04  0.773E-04
   4.040  0.760E-04  0.760E-04
   4.050  0.735E-04  0.735E-04
   4.060  0.701E-04  0.701E-04
   4.070  0.662E-04  0.662E-04
   4.080  0.624E-04  0.624E-04
   4.090  0.591E-04  0.591E-04
   4.100  0.566E-04  0.566E-04
   4.110  0.554E-04  0.554E-04
   4.120  0.552E-04  0.552E-04
   4.130  0.560E-04  0.560E-04
   4.140  0.575E-04  0.575E-04
   4.150  0.593E-04  0.593E-04
   4.160  0.611E-04  0.611E-04
   4.170  0.626E-04  0.626E-04
   4.180  0.636E-04  0.636E-04
   4.190  0.641E-04  0.641E-04
   4.200  0.642E-04  0.642E-04
   4.210  0.640E-04  0.640E-04
   4.220  0.637E-04  0.637E-04
   4.230  0.634E-04  0.634E-04
   4.240  0.633E-04  0.633E-04
   4.250  0.632E-04  0.632E-04
   4.260  0.633E-04  0.633E-04
   4.270  0.635E-04  0.635E-04
   4.280  0.636E-04  0.636E-04
   4.290  0.637E-04  0.637E-04
   4.300  0.635E-04  0.635E-04
   4.310  0.630E-04  0.630E-04
   4.320  0.621E-04  0.621E-04
   4.330  0.607E-04  0.607E-04
   4.340  0.588E-04  0.588E-04
   4.350  0.566E-04  0.566E-04
   4.360  0.544E-04  0.544E-04
   4.370  0.526E-04  0.526E-04
   4.380  0.515E-04  0.515E-04
   4.390  0.515E-04  0.515E-04
   4.400  0.529E-04  0.529E-04
   4.410  0.556E-04  0.556E-04
   4.420  0.593E-04  0.593E-04
   4.430  0.638E-04  0.638E-04
   4.440  0.684E-04  0.684E-04
   4.450  0.724E-04  0.724E-04
   4.460  0.754E-04  0.754E-04
   4.470  0.769E-04  0.769E-04
   4.480  0.766E-04  0.766E-04
   4.490  0.745E-04  0.745E-04
   4.500  0.708E-04  0.708E-04
   4.510  0.660E-04  0.660E-04
   4.520  0.607E-04  0.607E-04
   4.530  0.555E-04  0.555E-04
   4.540  0.511E-04  0.511E-04
   4.550  0.482E-04  0.482E-04
   4.560  0.471E-04  0.471E-04
   4.570  0.481E-04  0.481E-04
   4.580  0.510E-04  0.510E-04
   4.590  0.555E-04  0.555E-04
   4.600  0.612E-04  0.612E-04
   4.610  0.674E-04  0.674E-04
   4.620  0.733E-04  0.733E-04
   4.630  0.780E-04  0.780E-04
   4.640  0.810E-04  0.810E-04
   4.650  0.819E-04  0.819E-04
   4.660  0.805E-04  0.805E-04
   4.670  0.771E-04  0.771E-04
   4.680  0.722E-04  0.722E-04
   4.690  0.668E-04  0.668E-04
   4.700  0.617E-04  0.617E-04
   4.710  0.577E-04  0.577E-04
   4.720  0.556E-04  0.556E-04
   4.730  0.556E-04  0.556E-04
   4.740  0.578E-04  0.578E-04
   4.750  0.618E-04  0.618E-04
   4.760  0.671E-04  0.671E-04
   4.770  0.727E-04  0.727E-04
   4.780  0.777E-04  0.777E-04
   4.790  0.814E-04  0.814E-04
   4.800  0.831E-04  0.831E-04
   4.810  0.827E-04  0.827E-04
   4.820  0.804E-04  0.804E-04
   4.830  0.766E-04  0.766E-04
   4.840  0.723E-04  0.723E-04
   4.850  0.685E-04  0.685E-04
   4.860  0.659E-04  0.659E-04
   4.870  0.654E-04  0.654E-04
   4.880  0.670E-04  0.670E-04
   4.890  0.706E-04  0.706E-04
   4.900  0.757E-04  0.757E-04
   4.910  0.815E-04  0.815E-04
   4.920  0.870E-04  0.870E-04
   4.930  0.915E-04  0.915E-04
   4.940  0.946E-04  0.946E-04
   4.950  0.961E-04  0.961E-04
   4.960  0.964E-04  0.964E-04
   4.970  0.960E-04  0.960E-04
   4.980  0.955E-04  0.955E-04
   4.990  0.957E-04  0.957E-04
   5.000  0.969E-04  0.969E-04
   5.010  0.991E-04  0.991E-04
   5.020  0.102E-03  0.102E-03
   5.030  0.105E-03  0.105E-03
   5.040  0.106E-03  0.106E-03
   5.050  0.107E-03  0.107E-03
   5.060  0.105E-03  0.105E-03
   5.070  0.102E-03  0.102E-03
   5.080  0.967E-04  0.967E-04
   5.090  0.907E-04  0.907E-04
   5.100  0.847E-04  0.847E-04
   5.110  0.794E-04  0.794E-04
   5.120  0.751E-04  0.751E-04
   5.130  0.721E-04  0.721E-04
   5.140  0.700E-04  0.700E-04
   5.150  0.684E-04  0.684E-04
   5.160  0.668E-04  0.668E-04
   5.170  0.648E-04  0.648E-04
   5.180  0.623E-04  0.623E-04
   5.190  0.597E-04  0.597E-04
   5.200  0.579E-04  0.579E-04
   5.210  0.580E-04  0.580E-04
   5.220  0.616E-04  0.616E-04
   5.230  0.701E-04  0.701E-04
   5.240  0.848E-04  0.848E-04
   5.250  0.107E-03  0.107E-03
   5.260  0.136E-03  0.136E-03
   5.270  0.172E-03  0.172E-03
   5.280  0.213E-03  0.213E-03
   5.290  0.255E-03  0.255E-03
   5.300  0.295E-03  0.295E-03
   5.310  0.328E-03  0.328E-03
   5.320  0.351E-03  0.351E-03
   5.330  0.361E-03  0.361E-03
   5.340  0.357E-03  0.357E-03
   5.350  0.341E-03  0.341E-03
   5.360  0.315E-03  0.315E-03
   5.370  0.284E-03  0.284E-03
   5.380  0.253E-03  0.253E-03
   5.390  0.225E-03  0.225E-03
   5.400  0.204E-03  0.204E-03
   5.410  0.190E-03  0.190E-03
   5.420  0.183E-03  0.183E-03
   5.430  0.181E-03  0.181E-03
   5.440  0.181E-03  0.181E-03
   5.450  0.181E-03  0.181E-03
   5.460  0.179E-03  0.179E-03
   5.470  0.174E-03  0.174E-03
   5.480  0.168E-03  0.168E-03
   5.490  0.161E-03  0.161E-03
   5.500  0.157E-03  0.157E-03
   5.510  0.156E-03  0.156E-03
   5.520  0.160E-03  0.160E-03
   5.530  0.169E-03  0.169E-03
   5.540  0.183E-03  0.183E-03
   5.550  0.199E-03  0.199E-03
   5.560  0.214E-03  0.214E-03
   5.570  0.227E-03  0.227E-03
   5.580  0.236E-03  0.236E-03
   5.590  0.239E-03  0.239E-03
   5.600  0.236E-03  0.236E-03
   5.610  0.230E-03  0.230E-03
   5.620  0.221E-03  0.221E-03
   5.630  0.212E-03  0.212E-03
   5.640  0.205E-03  0.205E-03
   5.650  0.201E-03  0.201E-03
   5.660  0.201E-03  0.201E-03
   5.670  0.208E-03  0.208E-03
   5.680  0.220E-03  0.220E-03
   5.690  0.239E-03  0.239E-03
   5.700  0.262E-03  0.262E-03
   5.710  0.288E-03  0.288E-03
   5.720  0.314E-03  0.314E-03
   5.730  0.338E-03  0.338E-03
   5.740  0.354E-03  0.354E-03
   5.750  0.362E-03  0.362E-03
   5.760  0.359E-03  0.359E-03
   5.770  0.347E-03  0.347E-03
   5.780  0.329E-03  0.329E-03
   5.790  0.309E-03  0.309E-03
   5.800  0.292E-03  0.292E-03
   5.810  0.285E-03  0.285E-03
   5.820  0.290E-03  0.290E-03
   5.830  0.310E-03  0.310E-03
   5.840  0.345E-03  0.345E-03
   5.850  0.391E-03  0.391E-03
   5.860  0.443E-03  0.443E-03
   5.870  0.496E-03  0.496E-03
   5.880  0.542E-03  0.542E-03
   5.890  0.578E-03  0.578E-03
   5.900  0.600E-03  0.600E-03
   5.910  0.608E-03  0.608E-03
   5.920  0.601E-03  0.601E-03
   5.930  0.584E-03  0.584E-03
   5.940  0.561E-03  0.561E-03
   5.950  0.538E-03  0.538E-03
   5.960  0.519E-03  0.519E-03
   5.970  0.511E-03  0.511E-03
   5.980  0.518E-03  0.518E-03
   5.990  0.543E-03  0.543E-03
   6.000  0.588E-03  0.588E-03
   6.010  0.652E-03  0.652E-03
   6.020  0.732E-03  0.732E-03
   6.030  0.821E-03  0.821E-03
   6.040  0.911E-03  0.911E-03
   6.050  0.996E-03  0.996E-03
   6.060  0.107E-02  0.107E-02
   6.070  0.113E-02  0.113E-02
   6.080  0.119E-02  0.119E-02
   6.090  0.125E-02  0.125E-02
   6.100  0.134E-02  0.134E-02
   6.110  0.147E-02  0.147E-02
   6.120  0.166E-02  0.166E-02
   6.130  0.192E-02  0.192E-02
   6.140  0.223E-02  0.223E-02
   6.150  0.260E-02  0.260E-02
   6.160  0.299E-02  0.299E-02
   6.170  0.337E-02  0.337E-02
   6.180  0.372E-02  0.372E-02
   6.190  0.400E-02  0.400E-02
   6.200  0.422E-02  0.422E-02
   6.210  0.442E-02  0.442E-02
   6.220  0.466E-02  0.466E-02
   6.230  0.511E-02  0.511E-02
   6.240  0.597E-02  0.597E-02
   6.250  0.755E-02  0.755E-02
   6.260  0.102E-01  0.102E-01
   6.270  0.145E-01  0.145E-01
   6.280  0.208E-01  0.208E-01
   6.290  0.296E-01  0.296E-01
   6.300  0.412E-01  0.412E-01
   6.310  0.558E-01  0.558E-01
   6.320  0.730E-01  0.730E-01
   6.330  0.922E-01  0.922E-01
   6.340  0.113E+00  0.113E+00
   6.350  0.133E+00  0.133E+00
   6.360  0.152E+00  0.152E+00
   6.370  0.169E+00  0.169E+00
   6.380  0.182E+00  0.182E+00
   6.390  0.192E+00  0.192E+00
   6.400  0.199E+00  0.199E+00
   6.410  0.204E+00  0.204E+00
   6.420  0.208E+00  0.208E+00
   6.430  0.210E+00  0.210E+00
   6.440  0.211E+00  0.211E+00
   6.450  0.211E+00  0.211E+00
   6.460  0.209E+00  0.209E+00
   6.470  0.204E+00  0.204E+00
   6.480  0.196E+00  0.196E+00
   6.490  0.184E+00  0.184E+00
   6.500  0.169E+00  0.169E+00
   6.510  0.153E+00  0.153E+00
   6.520  0.138E+00  0.138E+00
   6.530  0.125E+00  0.125E+00
   6.540  0.116E+00  0.116E+00
   6.550  0.112E+00  0.112E+00
   6.560  0.113E+00  0.113E+00
   6.570  0.119E+00  0.119E+00
   6.580  0.128E+00  0.128E+00
   6.590  0.138E+00  0.138E+00
   6.600  0.149E+00  0.149E+00
   6.610  0.159E+00  0.159E+00
   6.620  0.166E+00  0.166E+00
   6.630  0.171E+00  0.171E+00
   6.640  0.172E+00  0.172E+00
   6.650  0.172E+00  0.172E+00
   6.660  0.169E+00  0.169E+00
   6.670  0.165E+00  0.165E+00
   6.680  0.161E+00  0.161E+00
   6.690  0.156E+00  0.156E+00
   6.700  0.151E+00  0.151E+00
   6.710  0.146E+00  0.146E+00
   6.720  0.143E+00  0.143E+00
   6.730  0.140E+00  0.140E+00
   6.740  0.140E+00  0.140E+00
   6.750  0.142E+00  0.142E+00
   6.760  0.147E+00  0.147E+00
   6.770  0.156E+00  0.156E+00
   6.780  0.167E+00  0.167E+00
   6.790  0.179E+00  0.179E+00
   6.800  0.191E+00  0.191E+00
   6.810  0.202E+00  0.202E+00
   6.820  0.209E+00  0.209E+00
   6.830  0.212E+00  0.212E+00
   6.840  0.210E+00  0.210E+00
   6.850  0.203E+00  0.203E+00
   6.860  0.193E+00  0.193E+00
   6.870  0.180E+00  0.180E+00
   6.880  0.165E+00  0.165E+00
   6.890  0.150E+00  0.150E+00
   6.900  0.135E+00  0.135E+00
   6.910  0.122E+00  0.122E+00
   6.920  0.111E+00  0.111E+00
   6.930  0.103E+00  0.103E+00
   6.940  0.991E-01  0.991E-01
   6.950  0.993E-01  0.993E-01
   6.960  0.104E+00  0.104E+00
   6.970  0.112E+00  0.112E+00
   6.980  0.124E+00  0.124E+00
   6.990  0.139E+00  0.139E+00
   7.000  0.155E+00  0.155E+00
   7.010  0.172E+00  0.172E+00
   7.020  0.188E+00  0.188E+00
   7.030  0.202E+00  0.202E+00
   7.040  0.214E+00  0.214E+00
   7.050  0.221E+00  0.221E+00
   7.060  0.225E+00  0.225E+00
   7.070  0.225E+00  0.225E+00
   7.080  0.220E+00  0.220E+00
   7.090  0.212E+00  0.212E+00
   7.100  0.201E+00  0.201E+00
   7.110  0.187E+00  0.187E+00
   7.120  0.173E+00  0.173E+00
   7.130  0.158E+00  0.158E+00
   7.140  0.144E+00  0.144E+00
   7.150  0.131E+00  0.131E+00
   7.160  0.120E+00  0.120E+00
   7.170  0.111E+00  0.111E+00
   7.180  0.105E+00  0.105E+00
   7.190  0.102E+00  0.102E+00
   7.200  0.102E+00  0.102E+00
   7.210  0.105E+00  0.105E+00
   7.220  0.111E+00  0.111E+00
   7.230  0.120E+00  0.120E+00
   7.240  0.131E+00  0.131E+00
   7.250  0.144E+00  0.144E+00
   7.260  0.158E+00  0.158E+00
   7.270  0.172E+00  0.172E+00
   7.280  0.187E+00  0.187E+00
   7.290  0.202E+00  0.202E+00
   7.300  0.215E+00  0.215E+00
   7.310  0.228E+00  0.228E+00
   7.320  0.238E+00  0.238E+00
   7.330  0.246E+00  0.246E+00
   7.340  0.250E+00  0.250E+00
   7.350  0.250E+00  0.250E+00
   7.360  0.246E+00  0.246E+00
   7.370  0.237E+00  0.237E+00
   7.380  0.223E+00  0.223E+00
   7.390  0.205E+00  0.205E+00
   7.400  0.186E+00  0.186E+00
   7.410  0.166E+00  0.166E+00
   7.420  0.148E+00  0.148E+00
   7.430  0.134E+00  0.134E+00
   7.440  0.124E+00  0.124E+00
   7.450  0.118E+00  0.118E+00
   7.460  0.118E+00  0.118E+00
   7.470  0.121E+00  0.121E+00
   7.480  0.128E+00  0.128E+00
   7.490  0.135E+00  0.135E+00
   7.500  0.143E+00  0.143E+00
   7.510  0.148E+00  0.148E+00
   7.520  0.152E+00  0.152E+00
   7.530  0.153E+00  0.153E+00
   7.540  0.152E+00  0.152E+00
   7.550  0.149E+00  0.149E+00
   7.560  0.145E+00  0.145E+00
   7.570  0.142E+00  0.142E+00
   7.580  0.141E+00  0.141E+00
   7.590  0.142E+00  0.142E+00
   7.600  0.145E+00  0.145E+00
   7.610  0.151E+00  0.151E+00
   7.620  0.158E+00  0.158E+00
   7.630  0.165E+00  0.165E+00
   7.640  0.172E+00  0.172E+00
   7.650  0.177E+00  0.177E+00
   7.660  0.179E+00  0.179E+00
   7.670  0.177E+00  0.177E+00
   7.680  0.172E+00  0.172E+00
   7.690  0.163E+00  0.163E+00
   7.700  0.151E+00  0.151E+00
   7.710  0.138E+00  0.138E+00
   7.720  0.125E+00  0.125E+00
   7.730  0.113E+00  0.113E+00
   7.740  0.102E+00  0.102E+00
   7.750  0.947E-01  0.947E-01
   7.760  0.896E-01  0.896E-01
   7.770  0.874E-01  0.874E-01
   7.780  0.876E-01  0.876E-01
   7.790  0.899E-01  0.899E-01
   7.800  0.938E-01  0.938E-01
   7.810  0.984E-01  0.984E-01
   7.820  0.103E+00  0.103E+00
   7.830  0.108E+00  0.108E+00
   7.840  0.111E+00  0.111E+00
   7.850  0.114E+00  0.114E+00
   7.860  0.114E+00  0.114E+00
   7.870  0.113E+00  0.113E+00
   7.880  0.110E+00  0.110E+00
   7.890  0.105E+00  0.105E+00
   7.900  0.987E-01  0.987E-01
   7.910  0.905E-01  0.905E-01
   7.920  0.818E-01  0.818E-01
   7.930  0.735E-01  0.735E-01
   7.940  0.671E-01  0.671E-01
   7.950  0.642E-01  0.642E-01
   7.960  0.659E-01  0.659E-01
   7.970  0.731E-01  0.731E-01
   7.980  0.857E-01  0.857E-01
   7.990  0.103E+00  0.103E+00
   8.000  0.122E+00  0.122E+00
   8.010  0.142E+00  0.142E+00
   8.020  0.159E+00  0.159E+00
   8.030  0.170E+00  0.170E+00
   8.040  0.175E+00  0.175E+00
   8.050  0.172E+00  0.172E+00
   8.060  0.162E+00  0.162E+00
   8.070  0.146E+00  0.146E+00
   8.080  0.128E+00  0.128E+00
   8.090  0.108E+00  0.108E+00
   8.100  0.906E-01  0.906E-01
   8.110  0.759E-01  0.759E-01
   8.120  0.650E-01  0.650E-01
   8.130  0.577E-01  0.577E-01
   8.140  0.537E-01  0.537E-01
   8.150  0.521E-01  0.521E-01
   8.160  0.523E-01  0.523E-01
   8.170  0.537E-01  0.537E-01
   8.180  0.560E-01  0.560E-01
   8.190  0.589E-01  0.589E-01
   8.200  0.624E-01  0.624E-01
   8.210  0.663E-01  0.663E-01
   8.220  0.703E-01  0.703E-01
   8.230  0.740E-01  0.740E-01
   8.240  0.772E-01  0.772E-01
   8.250  0.797E-01  0.797E-01
   8.260  0.812E-01  0.812E-01
   8.270  0.819E-01  0.819E-01
   8.280  0.819E-01  0.819E-01
   8.290  0.817E-01  0.817E-01
   8.300  0.814E-01  0.814E-01
   8.310  0.817E-01  0.817E-01
   8.320  0.828E-01  0.828E-01
   8.330  0.850E-01  0.850E-01
   8.340  0.887E-01  0.887E-01
   8.350  0.939E-01  0.939E-01
   8.360  0.100E+00  0.100E+00
   8.370  0.107E+00  0.107E+00
   8.380  0.114E+00  0.114E+00
   8.390  0.118E+00  0.118E+00
   8.400  0.120E+00  0.120E+00
   8.410  0.118E+00  0.118E+00
   8.420  0.112E+00  0.112E+00
   8.430  0.101E+00  0.101E+00
   8.440  0.878E-01  0.878E-01
   8.450  0.732E-01  0.732E-01
   8.460  0.594E-01  0.594E-01
   8.470  0.483E-01  0.483E-01
   8.480  0.413E-01  0.413E-01
   8.490  0.391E-01  0.391E-01
   8.500  0.419E-01  0.419E-01
   8.510  0.488E-01  0.488E-01
   8.520  0.588E-01  0.588E-01
   8.530  0.703E-01  0.703E-01
   8.540  0.819E-01  0.819E-01
   8.550  0.920E-01  0.920E-01
   8.560  0.996E-01  0.996E-01
   8.570  0.104E+00  0.104E+00
   8.580  0.104E+00  0.104E+00
   8.590  0.100E+00  0.100E+00
   8.600  0.927E-01  0.927E-01
   8.610  0.829E-01  0.829E-01
   8.620  0.719E-01  0.719E-01
   8.630  0.610E-01  0.610E-01
   8.640  0.515E-01  0.515E-01
   8.650  0.445E-01  0.445E-01
   8.660  0.405E-01  0.405E-01
   8.670  0.396E-01  0.396E-01
   8.680  0.413E-01  0.413E-01
   8.690  0.449E-01  0.449E-01
   8.700  0.498E-01  0.498E-01
   8.710  0.550E-01  0.550E-01
   8.720  0.601E-01  0.601E-01
   8.730  0.648E-01  0.648E-01
   8.740  0.690E-01  0.690E-01
   8.750  0.729E-01  0.729E-01
   8.760  0.765E-01  0.765E-01
   8.770  0.797E-01  0.797E-01
   8.780  0.823E-01  0.823E-01
   8.790  0.840E-01  0.840E-01
   8.800  0.843E-01  0.843E-01
   8.810  0.830E-01  0.830E-01
   8.820  0.803E-01  0.803E-01
   8.830  0.765E-01  0.765E-01
   8.840  0.724E-01  0.724E-01
   8.850  0.691E-01  0.691E-01
   8.860  0.675E-01  0.675E-01
   8.870  0.679E-01  0.679E-01
   8.880  0.707E-01  0.707E-01
   8.890  0.751E-01  0.751E-01
   8.900  0.803E-01  0.803E-01
   8.910  0.852E-01  0.852E-01
   8.920  0.886E-01  0.886E-01
   8.930  0.897E-01  0.897E-01
   8.940  0.882E-01  0.882E-01
   8.950  0.842E-01  0.842E-01
   8.960  0.783E-01  0.783E-01
   8.970  0.711E-01  0.711E-01
   8.980  0.635E-01  0.635E-01
   8.990  0.562E-01  0.562E-01
   9.000  0.500E-01  0.500E-01
   9.010  0.451E-01  0.451E-01
   9.020  0.418E-01  0.418E-01
   9.030  0.403E-01  0.403E-01
   9.040  0.402E-01  0.402E-01
   9.050  0.412E-01  0.412E-01
   9.060  0.430E-01  0.430E-01
   9.070  0.451E-01  0.451E-01
   9.080  0.471E-01  0.471E-01
   9.090  0.486E-01  0.486E-01
   9.100  0.497E-01  0.497E-01
   9.110  0.505E-01  0.505E-01
   9.120  0.512E-01  0.512E-01
   9.130  0.522E-01  0.522E-01
   9.140  0.539E-01  0.539E-01
   9.150  0.566E-01  0.566E-01
   9.160  0.602E-01  0.602E-01
   9.170  0.647E-01  0.647E-01
   9.180  0.697E-01  0.697E-01
   9.190  0.747E-01  0.747E-01
   9.200  0.793E-01  0.793E-01
   9.210  0.829E-01  0.829E-01
   9.220  0.852E-01  0.852E-01
   9.230  0.858E-01  0.858E-01
   9.240  0.847E-01  0.847E-01
   9.250  0.820E-01  0.820E-01
   9.260  0.780E-01  0.780E-01
   9.270  0.731E-01  0.731E-01
   9.280  0.680E-01  0.680E-01
   9.290  0.634E-01  0.634E-01
   9.300  0.598E-01  0.598E-01
   9.310  0.578E-01  0.578E-01
   9.320  0.573E-01  0.573E-01
   9.330  0.584E-01  0.584E-01
   9.340  0.604E-01  0.604E-01
   9.350  0.627E-01  0.627E-01
   9.360  0.646E-01  0.646E-01
   9.370  0.655E-01  0.655E-01
   9.380  0.651E-01  0.651E-01
   9.390  0.633E-01  0.633E-01
   9.400  0.607E-01  0.607E-01
   9.410  0.576E-01  0.576E-01
   9.420  0.547E-01  0.547E-01
   9.430  0.525E-01  0.525E-01
   9.440  0.512E-01  0.512E-01
   9.450  0.509E-01  0.509E-01
   9.460  0.512E-01  0.512E-01
   9.470  0.519E-01  0.519E-01
   9.480  0.525E-01  0.525E-01
   9.490  0.528E-01  0.528E-01
   9.500  0.528E-01  0.528E-01
   9.510  0.527E-01  0.527E-01
   9.520  0.528E-01  0.528E-01
   9.530  0.535E-01  0.535E-01
   9.540  0.551E-01  0.551E-01
   9.550  0.579E-01  0.579E-01
   9.560  0.618E-01  0.618E-01
   9.570  0.664E-01  0.664E-01
   9.580  0.712E-01  0.712E-01
   9.590  0.755E-01  0.755E-01
   9.600  0.785E-01  0.785E-01
   9.610  0.797E-01  0.797E-01
   9.620  0.786E-01  0.786E-01
   9.630  0.753E-01  0.753E-01
   9.640  0.702E-01  0.702E-01
   9.650  0.639E-01  0.639E-01
   9.660  0.576E-01  0.576E-01
   9.670  0.522E-01  0.522E-01
   9.680  0.487E-01  0.487E-01
   9.690  0.477E-01  0.477E-01
   9.700  0.494E-01  0.494E-01
   9.710  0.535E-01  0.535E-01
   9.720  0.594E-01  0.594E-01
   9.730  0.660E-01  0.660E-01
   9.740  0.721E-01  0.721E-01
   9.750  0.767E-01  0.767E-01
   9.760  0.791E-01  0.791E-01
   9.770  0.788E-01  0.788E-01
   9.780  0.762E-01  0.762E-01
   9.790  0.716E-01  0.716E-01
   9.800  0.660E-01  0.660E-01
   9.810  0.603E-01  0.603E-01
   9.820  0.553E-01  0.553E-01
   9.830  0.515E-01  0.515E-01
   9.840  0.490E-01  0.490E-01
   9.850  0.480E-01  0.480E-01
   9.860  0.481E-01  0.481E-01
   9.870  0.492E-01  0.492E-01
   9.880  0.511E-01  0.511E-01
   9.890  0.538E-01  0.538E-01
   9.900  0.574E-01  0.574E-01
   9.910  0.619E-01  0.619E-01
   9.920  0.672E-01  0.672E-01
   9.930  0.729E-01  0.729E-01
   9.940  0.784E-01  0.784E-01
   9.950  0.831E-01  0.831E-01
   9.960  0.863E-01  0.863E-01
   9.970  0.876E-01  0.876E-01
   9.980  0.869E-01  0.869E-01
   9.990  0.843E-01  0.843E-01
  10.000  0.804E-01  0.804E-01
  10.010  0.758E-01  0.758E-01
  10.020  0.712E-01  0.712E-01
  10.030  0.672E-01  0.672E-01
  10.040  0.640E-01  0.640E-01
  10.050  0.618E-01  0.618E-01
  10.060  0.604E-01  0.604E-01
  10.070  0.595E-01  0.595E-01
  10.080  0.589E-01  0.589E-01
  10.090  0.583E-01  0.583E-01
  10.100  0.575E-01  0.575E-01
  10.110  0.565E-01  0.565E-01
  10.120  0.554E-01  0.554E-01
  10.130  0.541E-01  0.541E-01
  10.140  0.530E-01  0.530E-01
  10.150  0.522E-01  0.522E-01
  10.160  0.518E-01  0.518E-01
  10.170  0.518E-01  0.518E-01
  10.180  0.522E-01  0.522E-01
  10.190  0.529E-01  0.529E-01
  10.200  0.540E-01  0.540E-01
  10.210  0.554E-01  0.554E-01
  10.220  0.572E-01  0.572E-01
  10.230  0.599E-01  0.599E-01
  10.240  0.634E-01  0.634E-01
  10.250  0.680E-01  0.680E-01
  10.260  0.734E-01  0.734E-01
  10.270  0.791E-01  0.791E-01
  10.280  0.845E-01  0.845E-01
  10.290  0.886E-01  0.886E-01
  10.300  0.908E-01  0.908E-01
  10.310  0.905E-01  0.905E-01
  10.320  0.876E-01  0.876E-01
  10.330  0.824E-01  0.824E-01
  10.340  0.758E-01  0.758E-01
  10.350  0.688E-01  0.688E-01
  10.360  0.623E-01  0.623E-01
  10.370  0.573E-01  0.573E-01
  10.380  0.541E-01  0.541E-01
  10.390  0.530E-01  0.530E-01
  10.400  0.534E-01  0.534E-01
  10.410  0.547E-01  0.547E-01
  10.420  0.560E-01  0.560E-01
  10.430  0.567E-01  0.567E-01
  10.440  0.564E-01  0.564E-01
  10.450  0.548E-01  0.548E-01
  10.460  0.524E-01  0.524E-01
  10.470  0.496E-01  0.496E-01
  10.480  0.468E-01  0.468E-01
  10.490  0.446E-01  0.446E-01
  10.500  0.434E-01  0.434E-01
  10.510  0.434E-01  0.434E-01
  10.520  0.445E-01  0.445E-01
  10.530  0.467E-01  0.467E-01
  10.540  0.499E-01  0.499E-01
  10.550  0.537E-01  0.537E-01
  10.560  0.581E-01  0.581E-01
  10.570  0.628E-01  0.628E-01
  10.580  0.680E-01  0.680E-01
  10.590  0.733E-01  0.733E-01
  10.600  0.788E-01  0.788E-01
  10.610  0.844E-01  0.844E-01
  10.620  0.901E-01  0.901E-01
  10.630  0.958E-01  0.958E-01
  10.640  0.101E+00  0.101E+00
  10.650  0.107E+00  0.107E+00
  10.660  0.111E+00  0.111E+00
  10.670  0.115E+00  0.115E+00
  10.680  0.117E+00  0.117E+00
  10.690  0.118E+00  0.118E+00
  10.700  0.117E+00  0.117E+00
  10.710  0.114E+00  0.114E+00
  10.720  0.109E+00  0.109E+00
  10.730  0.102E+00  0.102E+00
  10.740  0.936E-01  0.936E-01
  10.750  0.854E-01  0.854E-01
  10.760  0.781E-01  0.781E-01
  10.770  0.725E-01  0.725E-01
  10.780  0.692E-01  0.692E-01
  10.790  0.683E-01  0.683E-01
  10.800  0.695E-01  0.695E-01
  10.810  0.721E-01  0.721E-01
  10.820  0.752E-01  0.752E-01
  10.830  0.777E-01  0.777E-01
  10.840  0.790E-01  0.790E-01
  10.850  0.787E-01  0.787E-01
  10.860  0.768E-01  0.768E-01
  10.870  0.735E-01  0.735E-01
  10.880  0.694E-01  0.694E-01
  10.890  0.650E-01  0.650E-01
  10.900  0.608E-01  0.608E-01
  10.910  0.572E-01  0.572E-01
  10.920  0.545E-01  0.545E-01
  10.930  0.528E-01  0.528E-01
  10.940  0.522E-01  0.522E-01
  10.950  0.531E-01  0.531E-01
  10.960  0.554E-01  0.554E-01
  10.970  0.594E-01  0.594E-01
  10.980  0.651E-01  0.651E-01
  10.990  0.724E-01  0.724E-01
  11.000  0.811E-01  0.811E-01
  11.010  0.905E-01  0.905E-01
  11.020  0.999E-01  0.999E-01
  11.030  0.108E+00  0.108E+00
  11.040  0.115E+00  0.115E+00
  11.050  0.119E+00  0.119E+00
  11.060  0.120E+00  0.120E+00
  11.070  0.117E+00  0.117E+00
  11.080  0.112E+00  0.112E+00
  11.090  0.105E+00  0.105E+00
  11.100  0.962E-01  0.962E-01
  11.110  0.871E-01  0.871E-01
  11.120  0.781E-01  0.781E-01
  11.130  0.698E-01  0.698E-01
  11.140  0.626E-01  0.626E-01
  11.150  0.568E-01  0.568E-01
  11.160  0.525E-01  0.525E-01
  11.170  0.498E-01  0.498E-01
  11.180  0.489E-01  0.489E-01
  11.190  0.496E-01  0.496E-01
  11.200  0.518E-01  0.518E-01
  11.210  0.553E-01  0.553E-01
  11.220  0.598E-01  0.598E-01
  11.230  0.647E-01  0.647E-01
  11.240  0.695E-01  0.695E-01
  11.250  0.737E-01  0.737E-01
  11.260  0.766E-01  0.766E-01
  11.270  0.782E-01  0.782E-01
  11.280  0.782E-01  0.782E-01
  11.290  0.770E-01  0.770E-01
  11.300  0.751E-01  0.751E-01
  11.310  0.730E-01  0.730E-01
  11.320  0.713E-01  0.713E-01
  11.330  0.702E-01  0.702E-01
  11.340  0.699E-01  0.699E-01
  11.350  0.702E-01  0.702E-01
  11.360  0.709E-01  0.709E-01
  11.370  0.718E-01  0.718E-01
  11.380  0.725E-01  0.725E-01
  11.390  0.730E-01  0.730E-01
  11.400  0.734E-01  0.734E-01
  11.410  0.736E-01  0.736E-01
  11.420  0.737E-01  0.737E-01
  11.430  0.737E-01  0.737E-01
  11.440  0.736E-01  0.736E-01
  11.450  0.734E-01  0.734E-01
  11.460  0.732E-01  0.732E-01
  11.470  0.730E-01  0.730E-01
  11.480  0.729E-01  0.729E-01
  11.490  0.729E-01  0.729E-01
  11.500  0.730E-01  0.730E-01
  11.510  0.730E-01  0.730E-01
  11.520  0.728E-01  0.728E-01
  11.530  0.722E-01  0.722E-01
  11.540  0.712E-01  0.712E-01
  11.550  0.697E-01  0.697E-01
  11.560  0.680E-01  0.680E-01
  11.570  0.663E-01  0.663E-01
  11.580  0.650E-01  0.650E-01
  11.590  0.643E-01  0.643E-01
  11.600  0.644E-01  0.644E-01
  11.610  0.654E-01  0.654E-01
  11.620  0.671E-01  0.671E-01
  11.630  0.692E-01  0.692E-01
  11.640  0.713E-01  0.713E-01
  11.650  0.732E-01  0.732E-01
  11.660  0.746E-01  0.746E-01
  11.670  0.752E-01  0.752E-01
  11.680  0.750E-01  0.750E-01
  11.690  0.740E-01  0.740E-01
  11.700  0.722E-01  0.722E-01
  11.710  0.698E-01  0.698E-01
  11.720  0.670E-01  0.670E-01
  11.730  0.637E-01  0.637E-01
  11.740  0.602E-01  0.602E-01
  11.750  0.566E-01  0.566E-01
  11.760  0.529E-01  0.529E-01
  11.770  0.494E-01  0.494E-01
  11.780  0.462E-01  0.462E-01
  11.790  0.434E-01  0.434E-01
  11.800  0.413E-01  0.413E-01
  11.810  0.399E-01  0.399E-01
  11.820  0.393E-01  0.393E-01
  11.830  0.396E-01  0.396E-01
  11.840  0.408E-01  0.408E-01
  11.850  0.428E-01  0.428E-01
  11.860  0.456E-01  0.456E-01
  11.870  0.493E-01  0.493E-01
  11.880  0.539E-01  0.539E-01
  11.890  0.592E-01  0.592E-01
  11.900  0.654E-01  0.654E-01
  11.910  0.721E-01  0.721E-01
  11.920  0.789E-01  0.789E-01
  11.930  0.853E-01  0.853E-01
  11.940  0.907E-01  0.907E-01
  11.950  0.945E-01  0.945E-01
  11.960  0.963E-01  0.963E-01
  11.970  0.959E-01  0.959E-01
  11.980  0.933E-01  0.933E-01
  11.990  0.888E-01  0.888E-01
  12.000  0.830E-01  0.830E-01
  12.010  0.765E-01  0.765E-01
  12.020  0.698E-01  0.698E-01
  12.030  0.636E-01  0.636E-01
  12.040  0.583E-01  0.583E-01
  12.050  0.541E-01  0.541E-01
  12.060  0.513E-01  0.513E-01
  12.070  0.499E-01  0.499E-01
  12.080  0.499E-01  0.499E-01
  12.090  0.510E-01  0.510E-01
  12.100  0.531E-01  0.531E-01
  12.110  0.558E-01  0.558E-01
  12.120  0.587E-01  0.587E-01
  12.130  0.615E-01  0.615E-01
  12.140  0.638E-01  0.638E-01
  12.150  0.653E-01  0.653E-01
  12.160  0.658E-01  0.658E-01
  12.170  0.653E-01  0.653E-01
  12.180  0.639E-01  0.639E-01
  12.190  0.620E-01  0.620E-01
  12.200  0.601E-01  0.601E-01
  12.210  0.586E-01  0.586E-01
  12.220  0.578E-01  0.578E-01
  12.230  0.580E-01  0.580E-01
  12.240  0.591E-01  0.591E-01
  12.250  0.607E-01  0.607E-01
  12.260  0.625E-01  0.625E-01
  12.270  0.642E-01  0.642E-01
  12.280  0.654E-01  0.654E-01
  12.290  0.661E-01  0.661E-01
  12.300  0.662E-01  0.662E-01
  12.310  0.660E-01  0.660E-01
  12.320  0.657E-01  0.657E-01
  12.330  0.653E-01  0.653E-01
  12.340  0.647E-01  0.647E-01
  12.350  0.640E-01  0.640E-01
  12.360  0.630E-01  0.630E-01
  12.370  0.615E-01  0.615E-01
  12.380  0.595E-01  0.595E-01
  12.390  0.573E-01  0.573E-01
  12.400  0.551E-01  0.551E-01
  12.410  0.534E-01  0.534E-01
  12.420  0.524E-01  0.524E-01
  12.430  0.524E-01  0.524E-01
  12.440  0.536E-01  0.536E-01
  12.450  0.557E-01  0.557E-01
  12.460  0.584E-01  0.584E-01
  12.470  0.611E-01  0.611E-01
  12.480  0.633E-01  0.633E-01
  12.490  0.646E-01  0.646E-01
  12.500  0.646E-01  0.646E-01
  12.510  0.634E-01  0.634E-01
  12.520  0.611E-01  0.611E-01
  12.530  0.583E-01  0.583E-01
  12.540  0.554E-01  0.554E-01
  12.550  0.530E-01  0.530E-01
  12.560  0.515E-01  0.515E-01
  12.570  0.511E-01  0.511E-01
  12.580  0.519E-01  0.519E-01
  12.590  0.536E-01  0.536E-01
  12.600  0.559E-01  0.559E-01
  12.610  0.583E-01  0.583E-01
  12.620  0.605E-01  0.605E-01
  12.630  0.621E-01  0.621E-01
  12.640  0.627E-01  0.627E-01
  12.650  0.622E-01  0.622E-01
  12.660  0.606E-01  0.606E-01
  12.670  0.582E-01  0.582E-01
  12.680  0.551E-01  0.551E-01
  12.690  0.519E-01  0.519E-01
  12.700  0.491E-01  0.491E-01
  12.710  0.471E-01  0.471E-01
  12.720  0.463E-01  0.463E-01
  12.730  0.468E-01  0.468E-01
  12.740  0.488E-01  0.488E-01
  12.750  0.520E-01  0.520E-01
  12.760  0.560E-01  0.560E-01
  12.770  0.606E-01  0.606E-01
  12.780  0.651E-01  0.651E-01
  12.790  0.691E-01  0.691E-01
  12.800  0.722E-01  0.722E-01
  12.810  0.739E-01  0.739E-01
  12.820  0.742E-01  0.742E-01
  12.830  0.730E-01  0.730E-01
  12.840  0.703E-01  0.703E-01
  12.850  0.664E-01  0.664E-01
  12.860  0.617E-01  0.617E-01
  12.870  0.565E-01  0.565E-01
  12.880  0.510E-01  0.510E-01
  12.890  0.457E-01  0.457E-01
  12.900  0.407E-01  0.407E-01
  12.910  0.361E-01  0.361E-01
  12.920  0.321E-01  0.321E-01
  12.930  0.288E-01  0.288E-01
  12.940  0.261E-01  0.261E-01
  12.950  0.242E-01  0.242E-01
  12.960  0.231E-01  0.231E-01
  12.970  0.227E-01  0.227E-01
  12.980  0.229E-01  0.229E-01
  12.990  0.236E-01  0.236E-01
  13.000  0.244E-01  0.244E-01
  13.010  0.253E-01  0.253E-01
  13.020  0.258E-01  0.258E-01
  13.030  0.260E-01  0.260E-01
  13.040  0.259E-01  0.259E-01
  13.050  0.255E-01  0.255E-01
  13.060  0.251E-01  0.251E-01
  13.070  0.248E-01  0.248E-01
  13.080  0.248E-01  0.248E-01
  13.090  0.253E-01  0.253E-01
  13.100  0.261E-01  0.261E-01
  13.110  0.271E-01  0.271E-01
  13.120  0.281E-01  0.281E-01
  13.130  0.288E-01  0.288E-01
  13.140  0.289E-01  0.289E-01
  13.150  0.284E-01  0.284E-01
  13.160  0.272E-01  0.272E-01
  13.170  0.254E-01  0.254E-01
  13.180  0.233E-01  0.233E-01
  13.190  0.210E-01  0.210E-01
  13.200  0.190E-01  0.190E-01
  13.210  0.175E-01  0.175E-01
  13.220  0.165E-01  0.165E-01
  13.230  0.161E-01  0.161E-01
  13.240  0.160E-01  0.160E-01
  13.250  0.163E-01  0.163E-01
  13.260  0.165E-01  0.165E-01
  13.270  0.167E-01  0.167E-01
  13.280  0.166E-01  0.166E-01
  13.290  0.164E-01  0.164E-01
  13.300  0.161E-01  0.161E-01
  13.310  0.159E-01  0.159E-01
  13.320  0.158E-01  0.158E-01
  13.330  0.160E-01  0.160E-01
  13.340  0.165E-01  0.165E-01
  13.350  0.171E-01  0.171E-01
  13.360  0.176E-01  0.176E-01
  13.370  0.179E-01  0.179E-01
  13.380  0.176E-01  0.176E-01
  13.390  0.167E-01  0.167E-01
  13.400  0.152E-01  0.152E-01
  13.410  0.134E-01  0.134E-01
  13.420  0.114E-01  0.114E-01
  13.430  0.970E-02  0.970E-02
  13.440  0.843E-02  0.843E-02
  13.450  0.779E-02  0.779E-02
  13.460  0.783E-02  0.783E-02
  13.470  0.844E-02  0.844E-02
  13.480  0.941E-02  0.941E-02
  13.490  0.105E-01  0.105E-01
  13.500  0.114E-01  0.114E-01
  13.510  0.120E-01  0.120E-01
  13.520  0.122E-01  0.122E-01
  13.530  0.119E-01  0.119E-01
  13.540  0.112E-01  0.112E-01
  13.550  0.103E-01  0.103E-01
  13.560  0.946E-02  0.946E-02
  13.570  0.877E-02  0.877E-02
  13.580  0.838E-02  0.838E-02
  13.590  0.832E-02  0.832E-02
  13.600  0.857E-02  0.857E-02
  13.610  0.900E-02  0.900E-02
  13.620  0.948E-02  0.948E-02
  13.630  0.986E-02  0.986E-02
  13.640  0.100E-01  0.100E-01
  13.650  0.993E-02  0.993E-02
  13.660  0.954E-02  0.954E-02
  13.670  0.889E-02  0.889E-02
  13.680  0.804E-02  0.804E-02
  13.690  0.706E-02  0.706E-02
  13.700  0.602E-02  0.602E-02
  13.710  0.497E-02  0.497E-02
  13.720  0.396E-02  0.396E-02
  13.730  0.301E-02  0.301E-02
  13.740  0.214E-02  0.214E-02
  13.750  0.137E-02  0.137E-02
  13.760  0.719E-03  0.719E-03
  13.770  0.218E-03  0.218E-03
  13.780 -0.123E-03 -0.123E-03
  13.790 -0.295E-03 -0.295E-03
  13.800 -0.302E-03 -0.302E-03
  13.810 -0.155E-03 -0.155E-03
  13.820  0.123E-03  0.123E-03
  13.830  0.507E-03  0.507E-03
  13.840  0.970E-03  0.970E-03
  13.850  0.149E-02  0.149E-02
  13.860  0.203E-02  0.203E-02
  13.870  0.259E-02  0.259E-02
  13.880  0.314E-02  0.314E-02
  13.890  0.366E-02  0.366E-02
  13.900  0.413E-02  0.413E-02
  13.910  0.454E-02  0.454E-02
  13.920  0.486E-02  0.486E-02
  13.930  0.509E-02  0.509E-02
  13.940  0.520E-02  0.520E-02
  13.950  0.521E-02  0.521E-02
  13.960  0.514E-02  0.514E-02
  13.970  0.500E-02  0.500E-02
  13.980  0.485E-02  0.485E-02
  13.990  0.472E-02  0.472E-02
  14.000  0.464E-02  0.464E-02
  14.010  0.460E-02  0.460E-02
  14.020  0.461E-02  0.461E-02
  14.030  0.461E-02  0.461E-02
  14.040  0.456E-02  0.456E-02
  14.050  0.442E-02  0.442E-02
  14.060  0.415E-02  0.415E-02
  14.070  0.375E-02  0.375E-02
  14.080  0.324E-02  0.324E-02
  14.090  0.268E-02  0.268E-02
  14.100  0.214E-02  0.214E-02
  14.110  0.173E-02  0.173E-02
  14.120  0.153E-02  0.153E-02
  14.130  0.162E-02  0.162E-02
  14.140  0.206E-02  0.206E-02
  14.150  0.285E-02  0.285E-02
  14.160  0.397E-02  0.397E-02
  14.170  0.533E-02  0.533E-02
  14.180  0.681E-02  0.681E-02
  14.190  0.825E-02  0.825E-02
  14.200  0.946E-02  0.946E-02
  14.210  0.103E-01  0.103E-01
  14.220  0.107E-01  0.107E-01
  14.230  0.105E-01  0.105E-01
  14.240  0.976E-02  0.976E-02
  14.250  0.863E-02  0.863E-02
  14.260  0.721E-02  0.721E-02
  14.270  0.566E-02  0.566E-02
  14.280  0.413E-02  0.413E-02
  14.290  0.275E-02  0.275E-02
  14.300  0.159E-02  0.159E-02
  14.310  0.679E-03  0.679E-03
  14.320  0.173E-04  0.173E-04
  14.330 -0.420E-03 -0.420E-03
  14.340 -0.669E-03 -0.669E-03
  14.350 -0.773E-03 -0.773E-03
  14.360 -0.771E-03 -0.771E-03
  14.370 -0.700E-03 -0.700E-03
  14.380 -0.592E-03 -0.592E-03
  14.390 -0.471E-03 -0.471E-03
  14.400 -0.355E-03 -0.355E-03
  14.410 -0.254E-03 -0.254E-03
  14.420 -0.172E-03 -0.172E-03
  14.430 -0.111E-03 -0.111E-03
  14.440 -0.686E-04 -0.686E-04
  14.450 -0.403E-04 -0.403E-04
  14.460 -0.226E-04 -0.226E-04
