# E (eV)   ldos(E)   pdos(E)   
 -20.380  0.128E-07  0.128E-07
 -20.370  0.376E-07  0.376E-07
 -20.360  0.106E-06  0.106E-06
 -20.350  0.284E-06  0.284E-06
 -20.340  0.731E-06  0.731E-06
 -20.330  0.181E-05  0.181E-05
 -20.320  0.427E-05  0.427E-05
 -20.310  0.969E-05  0.969E-05
 -20.300  0.211E-04  0.211E-04
 -20.290  0.439E-04  0.439E-04
 -20.280  0.877E-04  0.877E-04
 -20.270  0.168E-03  0.168E-03
 -20.260  0.309E-03  0.309E-03
 -20.250  0.544E-03  0.544E-03
 -20.240  0.921E-03  0.921E-03
 -20.230  0.149E-02  0.149E-02
 -20.220  0.233E-02  0.233E-02
 -20.210  0.349E-02  0.349E-02
 -20.200  0.503E-02  0.503E-02
 -20.190  0.696E-02  0.696E-02
 -20.180  0.928E-02  0.928E-02
 -20.170  0.119E-01  0.119E-01
 -20.160  0.148E-01  0.148E-01
 -20.150  0.177E-01  0.177E-01
 -20.140  0.205E-01  0.205E-01
 -20.130  0.231E-01  0.231E-01
 -20.120  0.253E-01  0.253E-01
 -20.110  0.270E-01  0.270E-01
 -20.100  0.282E-01  0.282E-01
 -20.090  0.291E-01  0.291E-01
 -20.080  0.295E-01  0.295E-01
 -20.070  0.298E-01  0.298E-01
 -20.060  0.300E-01  0.300E-01
 -20.050  0.302E-01  0.302E-01
 -20.040  0.306E-01  0.306E-01
 -20.030  0.315E-01  0.315E-01
 -20.020  0.330E-01  0.330E-01
 -20.010  0.354E-01  0.354E-01
 -20.000  0.391E-01  0.391E-01
 -19.990  0.446E-01  0.446E-01
 -19.980  0.521E-01  0.521E-01
 -19.970  0.621E-01  0.621E-01
 -19.960  0.747E-01  0.747E-01
 -19.950  0.899E-01  0.899E-01
 -19.940  0.107E+00  0.107E+00
 -19.930  0.126E+00  0.126E+00
 -19.920  0.145E+00  0.145E+00
 -19.910  0.164E+00  0.164E+00
 -19.900  0.181E+00  0.181E+00
 -19.890  0.195E+00  0.195E+00
 -19.880  0.206E+00  0.206E+00
 -19.870  0.213E+00  0.213E+00
 -19.860  0.217E+00  0.217E+00
 -19.850  0.219E+00  0.219E+00
 -19.840  0.218E+00  0.218E+00
 -19.830  0.216E+00  0.216E+00
 -19.820  0.213E+00  0.213E+00
 -19.810  0.211E+00  0.211E+00
 -19.800  0.208E+00  0.208E+00
 -19.790  0.206E+00  0.206E+00
 -19.780  0.205E+00  0.205E+00
 -19.770  0.204E+00  0.204E+00
 -19.760  0.203E+00  0.203E+00
 -19.750  0.202E+00  0.202E+00
 -19.740  0.202E+00  0.202E+00
 -19.730  0.201E+00  0.201E+00
 -19.720  0.201E+00  0.201E+00
 -19.710  0.201E+00  0.201E+00
 -19.700  0.201E+00  0.201E+00
 -19.690  0.201E+00  0.201E+00
 -19.680  0.201E+00  0.201E+00
 -19.670  0.201E+00  0.201E+00
 -19.660  0.201E+00  0.201E+00
 -19.650  0.200E+00  0.200E+00
 -19.640  0.200E+00  0.200E+00
 -19.630  0.199E+00  0.199E+00
 -19.620  0.199E+00  0.199E+00
 -19.610  0.199E+00  0.199E+00
 -19.600  0.200E+00  0.200E+00
 -19.590  0.200E+00  0.200E+00
 -19.580  0.201E+00  0.201E+00
 -19.570  0.200E+00  0.200E+00
 -19.560  0.200E+00  0.200E+00
 -19.550  0.199E+00  0.199E+00
 -19.540  0.198E+00  0.198E+00
 -19.530  0.198E+00  0.198E+00
 -19.520  0.198E+00  0.198E+00
 -19.510  0.198E+00  0.198E+00
 -19.500  0.199E+00  0.199E+00
 -19.490  0.200E+00  0.200E+00
 -19.480  0.201E+00  0.201E+00
 -19.470  0.201E+00  0.201E+00
 -19.460  0.200E+00  0.200E+00
 -19.450  0.199E+00  0.199E+00
 -19.440  0.198E+00  0.198E+00
 -19.430  0.197E+00  0.197E+00
 -19.420  0.197E+00  0.197E+00
 -19.410  0.197E+00  0.197E+00
 -19.400  0.198E+00  0.198E+00
 -19.390  0.199E+00  0.199E+00
 -19.380  0.200E+00  0.200E+00
 -19.370  0.200E+00  0.200E+00
 -19.360  0.201E+00  0.201E+00
 -19.350  0.201E+00  0.201E+00
 -19.340  0.200E+00  0.200E+00
 -19.330  0.200E+00  0.200E+00
 -19.320  0.199E+00  0.199E+00
 -19.310  0.198E+00  0.198E+00
 -19.300  0.197E+00  0.197E+00
 -19.290  0.196E+00  0.196E+00
 -19.280  0.196E+00  0.196E+00
 -19.270  0.197E+00  0.197E+00
 -19.260  0.199E+00  0.199E+00
 -19.250  0.201E+00  0.201E+00
 -19.240  0.203E+00  0.203E+00
 -19.230  0.204E+00  0.204E+00
 -19.220  0.205E+00  0.205E+00
 -19.210  0.204E+00  0.204E+00
 -19.200  0.201E+00  0.201E+00
 -19.190  0.198E+00  0.198E+00
 -19.180  0.195E+00  0.195E+00
 -19.170  0.193E+00  0.193E+00
 -19.160  0.193E+00  0.193E+00
 -19.150  0.194E+00  0.194E+00
 -19.140  0.198E+00  0.198E+00
 -19.130  0.202E+00  0.202E+00
 -19.120  0.207E+00  0.207E+00
 -19.110  0.210E+00  0.210E+00
 -19.100  0.211E+00  0.211E+00
 -19.090  0.209E+00  0.209E+00
 -19.080  0.205E+00  0.205E+00
 -19.070  0.200E+00  0.200E+00
 -19.060  0.195E+00  0.195E+00
 -19.050  0.191E+00  0.191E+00
 -19.040  0.189E+00  0.189E+00
 -19.030  0.191E+00  0.191E+00
 -19.020  0.195E+00  0.195E+00
 -19.010  0.201E+00  0.201E+00
 -19.000  0.207E+00  0.207E+00
 -18.990  0.213E+00  0.213E+00
 -18.980  0.217E+00  0.217E+00
 -18.970  0.217E+00  0.217E+00
 -18.960  0.214E+00  0.214E+00
 -18.950  0.208E+00  0.208E+00
 -18.940  0.202E+00  0.202E+00
 -18.930  0.195E+00  0.195E+00
 -18.920  0.190E+00  0.190E+00
 -18.910  0.188E+00  0.188E+00
 -18.900  0.190E+00  0.190E+00
 -18.890  0.194E+00  0.194E+00
 -18.880  0.201E+00  0.201E+00
 -18.870  0.209E+00  0.209E+00
 -18.860  0.216E+00  0.216E+00
 -18.850  0.221E+00  0.221E+00
 -18.840  0.222E+00  0.222E+00
 -18.830  0.220E+00  0.220E+00
 -18.820  0.215E+00  0.215E+00
 -18.810  0.208E+00  0.208E+00
 -18.800  0.200E+00  0.200E+00
 -18.790  0.194E+00  0.194E+00
 -18.780  0.190E+00  0.190E+00
 -18.770  0.189E+00  0.189E+00
 -18.760  0.193E+00  0.193E+00
 -18.750  0.199E+00  0.199E+00
 -18.740  0.207E+00  0.207E+00
 -18.730  0.216E+00  0.216E+00
 -18.720  0.222E+00  0.222E+00
 -18.710  0.226E+00  0.226E+00
 -18.700  0.226E+00  0.226E+00
 -18.690  0.223E+00  0.223E+00
 -18.680  0.217E+00  0.217E+00
 -18.670  0.210E+00  0.210E+00
 -18.660  0.202E+00  0.202E+00
 -18.650  0.196E+00  0.196E+00
 -18.640  0.193E+00  0.193E+00
 -18.630  0.194E+00  0.194E+00
 -18.620  0.197E+00  0.197E+00
 -18.610  0.204E+00  0.204E+00
 -18.600  0.212E+00  0.212E+00
 -18.590  0.220E+00  0.220E+00
 -18.580  0.226E+00  0.226E+00
 -18.570  0.230E+00  0.230E+00
 -18.560  0.230E+00  0.230E+00
 -18.550  0.227E+00  0.227E+00
 -18.540  0.221E+00  0.221E+00
 -18.530  0.214E+00  0.214E+00
 -18.520  0.206E+00  0.206E+00
 -18.510  0.201E+00  0.201E+00
 -18.500  0.198E+00  0.198E+00
 -18.490  0.199E+00  0.199E+00
 -18.480  0.202E+00  0.202E+00
 -18.470  0.209E+00  0.209E+00
 -18.460  0.217E+00  0.217E+00
 -18.450  0.225E+00  0.225E+00
 -18.440  0.232E+00  0.232E+00
 -18.430  0.236E+00  0.236E+00
 -18.420  0.236E+00  0.236E+00
 -18.410  0.233E+00  0.233E+00
 -18.400  0.227E+00  0.227E+00
 -18.390  0.219E+00  0.219E+00
 -18.380  0.212E+00  0.212E+00
 -18.370  0.205E+00  0.205E+00
 -18.360  0.202E+00  0.202E+00
 -18.350  0.202E+00  0.202E+00
 -18.340  0.205E+00  0.205E+00
 -18.330  0.212E+00  0.212E+00
 -18.320  0.221E+00  0.221E+00
 -18.310  0.231E+00  0.231E+00
 -18.300  0.239E+00  0.239E+00
 -18.290  0.244E+00  0.244E+00
 -18.280  0.246E+00  0.246E+00
 -18.270  0.245E+00  0.245E+00
 -18.260  0.239E+00  0.239E+00
 -18.250  0.231E+00  0.231E+00
 -18.240  0.222E+00  0.222E+00
 -18.230  0.213E+00  0.213E+00
 -18.220  0.207E+00  0.207E+00
 -18.210  0.203E+00  0.203E+00
 -18.200  0.204E+00  0.204E+00
 -18.190  0.210E+00  0.210E+00
 -18.180  0.219E+00  0.219E+00
 -18.170  0.230E+00  0.230E+00
 -18.160  0.242E+00  0.242E+00
 -18.150  0.252E+00  0.252E+00
 -18.140  0.259E+00  0.259E+00
 -18.130  0.261E+00  0.261E+00
 -18.120  0.258E+00  0.258E+00
 -18.110  0.251E+00  0.251E+00
 -18.100  0.241E+00  0.241E+00
 -18.090  0.230E+00  0.230E+00
 -18.080  0.220E+00  0.220E+00
 -18.070  0.212E+00  0.212E+00
 -18.060  0.208E+00  0.208E+00
 -18.050  0.209E+00  0.209E+00
 -18.040  0.214E+00  0.214E+00
 -18.030  0.223E+00  0.223E+00
 -18.020  0.235E+00  0.235E+00
 -18.010  0.248E+00  0.248E+00
 -18.000  0.261E+00  0.261E+00
 -17.990  0.270E+00  0.270E+00
 -17.980  0.274E+00  0.274E+00
 -17.970  0.273E+00  0.273E+00
 -17.960  0.268E+00  0.268E+00
 -17.950  0.258E+00  0.258E+00
 -17.940  0.246E+00  0.246E+00
 -17.930  0.234E+00  0.234E+00
 -17.920  0.225E+00  0.225E+00
 -17.910  0.219E+00  0.219E+00
 -17.900  0.218E+00  0.218E+00
 -17.890  0.221E+00  0.221E+00
 -17.880  0.229E+00  0.229E+00
 -17.870  0.241E+00  0.241E+00
 -17.860  0.254E+00  0.254E+00
 -17.850  0.267E+00  0.267E+00
 -17.840  0.278E+00  0.278E+00
 -17.830  0.285E+00  0.285E+00
 -17.820  0.288E+00  0.288E+00
 -17.810  0.285E+00  0.285E+00
 -17.800  0.277E+00  0.277E+00
 -17.790  0.266E+00  0.266E+00
 -17.780  0.253E+00  0.253E+00
 -17.770  0.242E+00  0.242E+00
 -17.760  0.234E+00  0.234E+00
 -17.750  0.231E+00  0.231E+00
 -17.740  0.233E+00  0.233E+00
 -17.730  0.240E+00  0.240E+00
 -17.720  0.251E+00  0.251E+00
 -17.710  0.265E+00  0.265E+00
 -17.700  0.278E+00  0.278E+00
 -17.690  0.291E+00  0.291E+00
 -17.680  0.299E+00  0.299E+00
 -17.670  0.303E+00  0.303E+00
 -17.660  0.302E+00  0.302E+00
 -17.650  0.296E+00  0.296E+00
 -17.640  0.286E+00  0.286E+00
 -17.630  0.274E+00  0.274E+00
 -17.620  0.262E+00  0.262E+00
 -17.610  0.253E+00  0.253E+00
 -17.600  0.248E+00  0.248E+00
 -17.590  0.249E+00  0.249E+00
 -17.580  0.255E+00  0.255E+00
 -17.570  0.267E+00  0.267E+00
 -17.560  0.281E+00  0.281E+00
 -17.550  0.296E+00  0.296E+00
 -17.540  0.310E+00  0.310E+00
 -17.530  0.320E+00  0.320E+00
 -17.520  0.326E+00  0.326E+00
 -17.510  0.326E+00  0.326E+00
 -17.500  0.321E+00  0.321E+00
 -17.490  0.311E+00  0.311E+00
 -17.480  0.299E+00  0.299E+00
 -17.470  0.287E+00  0.287E+00
 -17.460  0.276E+00  0.276E+00
 -17.450  0.270E+00  0.270E+00
 -17.440  0.270E+00  0.270E+00
 -17.430  0.275E+00  0.275E+00
 -17.420  0.286E+00  0.286E+00
 -17.410  0.301E+00  0.301E+00
 -17.400  0.318E+00  0.318E+00
 -17.390  0.334E+00  0.334E+00
 -17.380  0.347E+00  0.347E+00
 -17.370  0.355E+00  0.355E+00
 -17.360  0.357E+00  0.357E+00
 -17.350  0.353E+00  0.353E+00
 -17.340  0.345E+00  0.345E+00
 -17.330  0.333E+00  0.333E+00
 -17.320  0.320E+00  0.320E+00
 -17.310  0.309E+00  0.309E+00
 -17.300  0.303E+00  0.303E+00
 -17.290  0.302E+00  0.302E+00
 -17.280  0.308E+00  0.308E+00
 -17.270  0.320E+00  0.320E+00
 -17.260  0.336E+00  0.336E+00
 -17.250  0.355E+00  0.355E+00
 -17.240  0.372E+00  0.372E+00
 -17.230  0.386E+00  0.386E+00
 -17.220  0.395E+00  0.395E+00
 -17.210  0.398E+00  0.398E+00
 -17.200  0.394E+00  0.394E+00
 -17.190  0.385E+00  0.385E+00
 -17.180  0.374E+00  0.374E+00
 -17.170  0.362E+00  0.362E+00
 -17.160  0.354E+00  0.354E+00
 -17.150  0.351E+00  0.351E+00
 -17.140  0.354E+00  0.354E+00
 -17.130  0.365E+00  0.365E+00
 -17.120  0.381E+00  0.381E+00
 -17.110  0.401E+00  0.401E+00
 -17.100  0.422E+00  0.422E+00
 -17.090  0.441E+00  0.441E+00
 -17.080  0.455E+00  0.455E+00
 -17.070  0.463E+00  0.463E+00
 -17.060  0.464E+00  0.464E+00
 -17.050  0.458E+00  0.458E+00
 -17.040  0.449E+00  0.449E+00
 -17.030  0.440E+00  0.440E+00
 -17.020  0.434E+00  0.434E+00
 -17.010  0.433E+00  0.433E+00
 -17.000  0.440E+00  0.440E+00
 -16.990  0.456E+00  0.456E+00
 -16.980  0.479E+00  0.479E+00
 -16.970  0.508E+00  0.508E+00
 -16.960  0.538E+00  0.538E+00
 -16.950  0.567E+00  0.567E+00
 -16.940  0.591E+00  0.591E+00
 -16.930  0.610E+00  0.610E+00
 -16.920  0.623E+00  0.623E+00
 -16.910  0.631E+00  0.631E+00
 -16.900  0.639E+00  0.639E+00
 -16.890  0.649E+00  0.649E+00
 -16.880  0.664E+00  0.664E+00
 -16.870  0.686E+00  0.686E+00
 -16.860  0.715E+00  0.715E+00
 -16.850  0.747E+00  0.747E+00
 -16.840  0.777E+00  0.777E+00
 -16.830  0.799E+00  0.799E+00
 -16.820  0.807E+00  0.807E+00
 -16.810  0.798E+00  0.798E+00
 -16.800  0.770E+00  0.770E+00
 -16.790  0.726E+00  0.726E+00
 -16.780  0.673E+00  0.673E+00
 -16.770  0.618E+00  0.618E+00
 -16.760  0.570E+00  0.570E+00
 -16.750  0.534E+00  0.534E+00
 -16.740  0.512E+00  0.512E+00
 -16.730  0.503E+00  0.503E+00
 -16.720  0.502E+00  0.502E+00
 -16.710  0.504E+00  0.504E+00
 -16.700  0.502E+00  0.502E+00
 -16.690  0.494E+00  0.494E+00
 -16.680  0.479E+00  0.479E+00
 -16.670  0.460E+00  0.460E+00
 -16.660  0.440E+00  0.440E+00
 -16.650  0.424E+00  0.424E+00
 -16.640  0.414E+00  0.414E+00
 -16.630  0.411E+00  0.411E+00
 -16.620  0.413E+00  0.413E+00
 -16.610  0.416E+00  0.416E+00
 -16.600  0.419E+00  0.419E+00
 -16.590  0.418E+00  0.418E+00
 -16.580  0.412E+00  0.412E+00
 -16.570  0.403E+00  0.403E+00
 -16.560  0.392E+00  0.392E+00
 -16.550  0.381E+00  0.381E+00
 -16.540  0.374E+00  0.374E+00
 -16.530  0.369E+00  0.369E+00
 -16.520  0.367E+00  0.367E+00
 -16.510  0.366E+00  0.366E+00
 -16.500  0.366E+00  0.366E+00
 -16.490  0.364E+00  0.364E+00
 -16.480  0.361E+00  0.361E+00
 -16.470  0.356E+00  0.356E+00
 -16.460  0.350E+00  0.350E+00
 -16.450  0.345E+00  0.345E+00
 -16.440  0.340E+00  0.340E+00
 -16.430  0.337E+00  0.337E+00
 -16.420  0.334E+00  0.334E+00
 -16.410  0.332E+00  0.332E+00
 -16.400  0.330E+00  0.330E+00
 -16.390  0.327E+00  0.327E+00
 -16.380  0.324E+00  0.324E+00
 -16.370  0.320E+00  0.320E+00
 -16.360  0.316E+00  0.316E+00
 -16.350  0.313E+00  0.313E+00
 -16.340  0.309E+00  0.309E+00
 -16.330  0.304E+00  0.304E+00
 -16.320  0.298E+00  0.298E+00
 -16.310  0.290E+00  0.290E+00
 -16.300  0.279E+00  0.279E+00
 -16.290  0.265E+00  0.265E+00
 -16.280  0.248E+00  0.248E+00
 -16.270  0.226E+00  0.226E+00
 -16.260  0.200E+00  0.200E+00
 -16.250  0.170E+00  0.170E+00
 -16.240  0.138E+00  0.138E+00
 -16.230  0.105E+00  0.105E+00
 -16.220  0.734E-01  0.734E-01
 -16.210  0.443E-01  0.443E-01
 -16.200  0.197E-01  0.197E-01
 -16.190  0.452E-03  0.452E-03
 -16.180 -0.130E-01 -0.130E-01
 -16.170 -0.208E-01 -0.208E-01
 -16.160 -0.240E-01 -0.240E-01
 -16.150 -0.237E-01 -0.237E-01
 -16.140 -0.210E-01 -0.210E-01
 -16.130 -0.172E-01 -0.172E-01
 -16.120 -0.132E-01 -0.132E-01
 -16.110 -0.947E-02 -0.947E-02
 -16.100 -0.638E-02 -0.638E-02
 -16.090 -0.403E-02 -0.403E-02
 -16.080 -0.235E-02 -0.235E-02
 -16.070 -0.123E-02 -0.123E-02
 -16.060 -0.526E-03 -0.526E-03
 -16.050 -0.112E-03 -0.112E-03
 -16.040  0.114E-03  0.114E-03
 -16.030  0.225E-03  0.225E-03
 -16.020  0.272E-03  0.272E-03
 -16.010  0.288E-03  0.288E-03
 -16.000  0.294E-03  0.294E-03
 -15.990  0.304E-03  0.304E-03
 -15.980  0.322E-03  0.322E-03
 -15.970  0.352E-03  0.352E-03
 -15.960  0.391E-03  0.391E-03
 -15.950  0.435E-03  0.435E-03
 -15.940  0.479E-03  0.479E-03
 -15.930  0.517E-03  0.517E-03
 -15.920  0.545E-03  0.545E-03
 -15.910  0.558E-03  0.558E-03
 -15.900  0.555E-03  0.555E-03
 -15.890  0.538E-03  0.538E-03
 -15.880  0.508E-03  0.508E-03
 -15.870  0.468E-03  0.468E-03
 -15.860  0.425E-03  0.425E-03
 -15.850  0.380E-03  0.380E-03
 -15.840  0.339E-03  0.339E-03
 -15.830  0.304E-03  0.304E-03
 -15.820  0.278E-03  0.278E-03
 -15.810  0.260E-03  0.260E-03
 -15.800  0.250E-03  0.250E-03
 -15.790  0.247E-03  0.247E-03
 -15.780  0.246E-03  0.246E-03
 -15.770  0.247E-03  0.247E-03
 -15.760  0.247E-03  0.247E-03
 -15.750  0.245E-03  0.245E-03
 -15.740  0.241E-03  0.241E-03
 -15.730  0.237E-03  0.237E-03
 -15.720  0.237E-03  0.237E-03
 -15.710  0.242E-03  0.242E-03
 -15.700  0.254E-03  0.254E-03
 -15.690  0.273E-03  0.273E-03
 -15.680  0.298E-03  0.298E-03
 -15.670  0.326E-03  0.326E-03
 -15.660  0.352E-03  0.352E-03
 -15.650  0.373E-03  0.373E-03
 -15.640  0.384E-03  0.384E-03
 -15.630  0.385E-03  0.385E-03
 -15.620  0.374E-03  0.374E-03
 -15.610  0.354E-03  0.354E-03
 -15.600  0.327E-03  0.327E-03
 -15.590  0.296E-03  0.296E-03
 -15.580  0.265E-03  0.265E-03
 -15.570  0.236E-03  0.236E-03
 -15.560  0.210E-03  0.210E-03
 -15.550  0.189E-03  0.189E-03
 -15.540  0.173E-03  0.173E-03
 -15.530  0.161E-03  0.161E-03
 -15.520  0.154E-03  0.154E-03
 -15.510  0.151E-03  0.151E-03
 -15.500  0.150E-03  0.150E-03
 -15.490  0.152E-03  0.152E-03
 -15.480  0.155E-03  0.155E-03
 -15.470  0.158E-03  0.158E-03
 -15.460  0.161E-03  0.161E-03
 -15.450  0.165E-03  0.165E-03
 -15.440  0.171E-03  0.171E-03
 -15.430  0.179E-03  0.179E-03
 -15.420  0.190E-03  0.190E-03
 -15.410  0.204E-03  0.204E-03
 -15.400  0.220E-03  0.220E-03
 -15.390  0.235E-03  0.235E-03
 -15.380  0.248E-03  0.248E-03
 -15.370  0.256E-03  0.256E-03
 -15.360  0.257E-03  0.257E-03
 -15.350  0.251E-03  0.251E-03
 -15.340  0.238E-03  0.238E-03
 -15.330  0.220E-03  0.220E-03
 -15.320  0.199E-03  0.199E-03
 -15.310  0.178E-03  0.178E-03
 -15.300  0.158E-03  0.158E-03
 -15.290  0.140E-03  0.140E-03
 -15.280  0.125E-03  0.125E-03
 -15.270  0.114E-03  0.114E-03
 -15.260  0.105E-03  0.105E-03
 -15.250  0.988E-04  0.988E-04
 -15.240  0.944E-04  0.944E-04
 -15.230  0.914E-04  0.914E-04
 -15.220  0.896E-04  0.896E-04
 -15.210  0.888E-04  0.888E-04
 -15.200  0.890E-04  0.890E-04
 -15.190  0.904E-04  0.904E-04
 -15.180  0.934E-04  0.934E-04
 -15.170  0.983E-04  0.983E-04
 -15.160  0.105E-03  0.105E-03
 -15.150  0.115E-03  0.115E-03
 -15.140  0.126E-03  0.126E-03
 -15.130  0.138E-03  0.138E-03
 -15.120  0.149E-03  0.149E-03
 -15.110  0.158E-03  0.158E-03
 -15.100  0.163E-03  0.163E-03
 -15.090  0.163E-03  0.163E-03
 -15.080  0.158E-03  0.158E-03
 -15.070  0.149E-03  0.149E-03
 -15.060  0.137E-03  0.137E-03
 -15.050  0.122E-03  0.122E-03
 -15.040  0.107E-03  0.107E-03
 -15.030  0.920E-04  0.920E-04
 -15.020  0.788E-04  0.788E-04
 -15.010  0.675E-04  0.675E-04
 -15.000  0.583E-04  0.583E-04
 -14.990  0.509E-04  0.509E-04
 -14.980  0.451E-04  0.451E-04
 -14.970  0.405E-04  0.405E-04
 -14.960  0.369E-04  0.369E-04
 -14.950  0.341E-04  0.341E-04
 -14.940  0.323E-04  0.323E-04
 -14.930  0.314E-04  0.314E-04
 -14.920  0.317E-04  0.317E-04
 -14.910  0.335E-04  0.335E-04
 -14.900  0.370E-04  0.370E-04
 -14.890  0.422E-04  0.422E-04
 -14.880  0.490E-04  0.490E-04
 -14.870  0.571E-04  0.571E-04
 -14.860  0.659E-04  0.659E-04
 -14.850  0.744E-04  0.744E-04
 -14.840  0.817E-04  0.817E-04
 -14.830  0.868E-04  0.868E-04
 -14.820  0.891E-04  0.891E-04
 -14.810  0.883E-04  0.883E-04
 -14.800  0.843E-04  0.843E-04
 -14.790  0.777E-04  0.777E-04
 -14.780  0.694E-04  0.694E-04
 -14.770  0.602E-04  0.602E-04
 -14.760  0.508E-04  0.508E-04
 -14.750  0.421E-04  0.421E-04
 -14.740  0.342E-04  0.342E-04
 -14.730  0.274E-04  0.274E-04
 -14.720  0.215E-04  0.215E-04
 -14.710  0.164E-04  0.164E-04
 -14.700  0.120E-04  0.120E-04
 -14.690  0.828E-05  0.828E-05
 -14.680  0.523E-05  0.523E-05
 -14.670  0.302E-05  0.302E-05
 -14.660  0.188E-05  0.188E-05
 -14.650  0.204E-05  0.204E-05
 -14.640  0.372E-05  0.372E-05
 -14.630  0.707E-05  0.707E-05
 -14.620  0.121E-04  0.121E-04
 -14.610  0.188E-04  0.188E-04
 -14.600  0.267E-04  0.267E-04
 -14.590  0.354E-04  0.354E-04
 -14.580  0.441E-04  0.441E-04
 -14.570  0.518E-04  0.518E-04
 -14.560  0.577E-04  0.577E-04
 -14.550  0.609E-04  0.609E-04
 -14.540  0.608E-04  0.608E-04
 -14.530  0.573E-04  0.573E-04
 -14.520  0.507E-04  0.507E-04
 -14.510  0.418E-04  0.418E-04
 -14.500  0.317E-04  0.317E-04
 -14.490  0.215E-04  0.215E-04
 -14.480  0.121E-04  0.121E-04
 -14.470  0.446E-05  0.446E-05
 -14.460 -0.114E-05 -0.114E-05
 -14.450 -0.464E-05 -0.464E-05
 -14.440 -0.628E-05 -0.628E-05
 -14.430 -0.645E-05 -0.645E-05
 -14.420 -0.558E-05 -0.558E-05
 -14.410 -0.405E-05 -0.405E-05
 -14.400 -0.211E-05 -0.211E-05
 -14.390  0.113E-06  0.113E-06
 -14.380  0.262E-05  0.262E-05
 -14.370  0.546E-05  0.546E-05
 -14.360  0.871E-05  0.871E-05
 -14.350  0.124E-04  0.124E-04
 -14.340  0.164E-04  0.164E-04
 -14.330  0.205E-04  0.205E-04
 -14.320  0.244E-04  0.244E-04
 -14.310  0.276E-04  0.276E-04
 -14.300  0.296E-04  0.296E-04
 -14.290  0.301E-04  0.301E-04
 -14.280  0.288E-04  0.288E-04
 -14.270  0.259E-04  0.259E-04
 -14.260  0.217E-04  0.217E-04
 -14.250  0.166E-04  0.166E-04
 -14.240  0.113E-04  0.113E-04
 -14.230  0.640E-05  0.640E-05
 -14.220  0.232E-05  0.232E-05
 -14.210 -0.666E-06 -0.666E-06
 -14.200 -0.250E-05 -0.250E-05
 -14.190 -0.331E-05 -0.331E-05
 -14.180 -0.332E-05 -0.332E-05
 -14.170 -0.278E-05 -0.278E-05
 -14.160 -0.192E-05 -0.192E-05
 -14.150 -0.923E-06 -0.923E-06
 -14.140  0.128E-06  0.128E-06
 -14.130  0.120E-05  0.120E-05
 -14.120  0.229E-05  0.229E-05
 -14.110  0.344E-05  0.344E-05
 -14.100  0.466E-05  0.466E-05
 -14.090  0.596E-05  0.596E-05
 -14.080  0.729E-05  0.729E-05
 -14.070  0.856E-05  0.856E-05
 -14.060  0.966E-05  0.966E-05
 -14.050  0.105E-04  0.105E-04
 -14.040  0.108E-04  0.108E-04
 -14.030  0.107E-04  0.107E-04
 -14.020  0.100E-04  0.100E-04
 -14.010  0.894E-05  0.894E-05
 -14.000  0.762E-05  0.762E-05
 -13.990  0.632E-05  0.632E-05
 -13.980  0.532E-05  0.532E-05
 -13.970  0.489E-05  0.489E-05
 -13.960  0.528E-05  0.528E-05
 -13.950  0.665E-05  0.665E-05
 -13.940  0.907E-05  0.907E-05
 -13.930  0.125E-04  0.125E-04
 -13.920  0.167E-04  0.167E-04
 -13.910  0.216E-04  0.216E-04
 -13.900  0.268E-04  0.268E-04
 -13.890  0.318E-04  0.318E-04
 -13.880  0.365E-04  0.365E-04
 -13.870  0.404E-04  0.404E-04
 -13.860  0.434E-04  0.434E-04
 -13.850  0.454E-04  0.454E-04
 -13.840  0.466E-04  0.466E-04
 -13.830  0.471E-04  0.471E-04
 -13.820  0.471E-04  0.471E-04
 -13.810  0.469E-04  0.469E-04
 -13.800  0.466E-04  0.466E-04
 -13.790  0.461E-04  0.461E-04
 -13.780  0.454E-04  0.454E-04
 -13.770  0.444E-04  0.444E-04
 -13.760  0.429E-04  0.429E-04
 -13.750  0.410E-04  0.410E-04
 -13.740  0.390E-04  0.390E-04
 -13.730  0.371E-04  0.371E-04
 -13.720  0.357E-04  0.357E-04
 -13.710  0.351E-04  0.351E-04
 -13.700  0.352E-04  0.352E-04
 -13.690  0.361E-04  0.361E-04
 -13.680  0.372E-04  0.372E-04
 -13.670  0.383E-04  0.383E-04
 -13.660  0.388E-04  0.388E-04
 -13.650  0.384E-04  0.384E-04
 -13.640  0.372E-04  0.372E-04
 -13.630  0.353E-04  0.353E-04
 -13.620  0.331E-04  0.331E-04
 -13.610  0.312E-04  0.312E-04
 -13.600  0.300E-04  0.300E-04
 -13.590  0.297E-04  0.297E-04
 -13.580  0.304E-04  0.304E-04
 -13.570  0.318E-04  0.318E-04
 -13.560  0.335E-04  0.335E-04
 -13.550  0.350E-04  0.350E-04
 -13.540  0.358E-04  0.358E-04
 -13.530  0.358E-04  0.358E-04
 -13.520  0.348E-04  0.348E-04
 -13.510  0.331E-04  0.331E-04
 -13.500  0.311E-04  0.311E-04
 -13.490  0.290E-04  0.290E-04
 -13.480  0.272E-04  0.272E-04
 -13.470  0.260E-04  0.260E-04
 -13.460  0.256E-04  0.256E-04
 -13.450  0.260E-04  0.260E-04
 -13.440  0.270E-04  0.270E-04
 -13.430  0.284E-04  0.284E-04
 -13.420  0.298E-04  0.298E-04
 -13.410  0.309E-04  0.309E-04
 -13.400  0.315E-04  0.315E-04
 -13.390  0.313E-04  0.313E-04
 -13.380  0.304E-04  0.304E-04
 -13.370  0.289E-04  0.289E-04
 -13.360  0.270E-04  0.270E-04
 -13.350  0.250E-04  0.250E-04
 -13.340  0.233E-04  0.233E-04
 -13.330  0.223E-04  0.223E-04
 -13.320  0.220E-04  0.220E-04
 -13.310  0.225E-04  0.225E-04
 -13.300  0.237E-04  0.237E-04
 -13.290  0.252E-04  0.252E-04
 -13.280  0.266E-04  0.266E-04
 -13.270  0.276E-04  0.276E-04
 -13.260  0.280E-04  0.280E-04
 -13.250  0.277E-04  0.277E-04
 -13.240  0.268E-04  0.268E-04
 -13.230  0.254E-04  0.254E-04
 -13.220  0.240E-04  0.240E-04
 -13.210  0.228E-04  0.228E-04
 -13.200  0.221E-04  0.221E-04
 -13.190  0.219E-04  0.219E-04
 -13.180  0.223E-04  0.223E-04
 -13.170  0.230E-04  0.230E-04
 -13.160  0.239E-04  0.239E-04
 -13.150  0.247E-04  0.247E-04
 -13.140  0.252E-04  0.252E-04
 -13.130  0.253E-04  0.253E-04
 -13.120  0.249E-04  0.249E-04
 -13.110  0.241E-04  0.241E-04
 -13.100  0.229E-04  0.229E-04
 -13.090  0.215E-04  0.215E-04
 -13.080  0.201E-04  0.201E-04
 -13.070  0.186E-04  0.186E-04
 -13.060  0.173E-04  0.173E-04
 -13.050  0.162E-04  0.162E-04
 -13.040  0.152E-04  0.152E-04
 -13.030  0.143E-04  0.143E-04
 -13.020  0.136E-04  0.136E-04
 -13.010  0.130E-04  0.130E-04
 -13.000  0.125E-04  0.125E-04
 -12.990  0.121E-04  0.121E-04
 -12.980  0.117E-04  0.117E-04
 -12.970  0.114E-04  0.114E-04
 -12.960  0.110E-04  0.110E-04
 -12.950  0.106E-04  0.106E-04
 -12.940  0.102E-04  0.102E-04
 -12.930  0.964E-05  0.964E-05
 -12.920  0.909E-05  0.909E-05
 -12.910  0.854E-05  0.854E-05
 -12.900  0.805E-05  0.805E-05
 -12.890  0.766E-05  0.766E-05
 -12.880  0.740E-05  0.740E-05
 -12.870  0.727E-05  0.727E-05
 -12.860  0.724E-05  0.724E-05
 -12.850  0.726E-05  0.726E-05
 -12.840  0.728E-05  0.728E-05
 -12.830  0.724E-05  0.724E-05
 -12.820  0.709E-05  0.709E-05
 -12.810  0.681E-05  0.681E-05
 -12.800  0.643E-05  0.643E-05
 -12.790  0.596E-05  0.596E-05
 -12.780  0.549E-05  0.549E-05
 -12.770  0.506E-05  0.506E-05
 -12.760  0.473E-05  0.473E-05
 -12.750  0.451E-05  0.451E-05
 -12.740  0.441E-05  0.441E-05
 -12.730  0.438E-05  0.438E-05
 -12.720  0.438E-05  0.438E-05
 -12.710  0.435E-05  0.435E-05
 -12.700  0.425E-05  0.425E-05
 -12.690  0.407E-05  0.407E-05
 -12.680  0.384E-05  0.384E-05
 -12.670  0.359E-05  0.359E-05
 -12.660  0.337E-05  0.337E-05
 -12.650  0.321E-05  0.321E-05
 -12.640  0.312E-05  0.312E-05
 -12.630  0.309E-05  0.309E-05
 -12.620  0.309E-05  0.309E-05
 -12.610  0.307E-05  0.307E-05
 -12.600  0.301E-05  0.301E-05
 -12.590  0.288E-05  0.288E-05
 -12.580  0.270E-05  0.270E-05
 -12.570  0.248E-05  0.248E-05
 -12.560  0.226E-05  0.226E-05
 -12.550  0.207E-05  0.207E-05
 -12.540  0.193E-05  0.193E-05
 -12.530  0.186E-05  0.186E-05
 -12.520  0.183E-05  0.183E-05
 -12.510  0.183E-05  0.183E-05
 -12.500  0.182E-05  0.182E-05
 -12.490  0.180E-05  0.180E-05
 -12.480  0.175E-05  0.175E-05
 -12.470  0.167E-05  0.167E-05
 -12.460  0.158E-05  0.158E-05
 -12.450  0.149E-05  0.149E-05
 -12.440  0.141E-05  0.141E-05
 -12.430  0.136E-05  0.136E-05
 -12.420  0.133E-05  0.133E-05
 -12.410  0.130E-05  0.130E-05
 -12.400  0.127E-05  0.127E-05
 -12.390  0.122E-05  0.122E-05
 -12.380  0.114E-05  0.114E-05
 -12.370  0.104E-05  0.104E-05
 -12.360  0.924E-06  0.924E-06
 -12.350  0.817E-06  0.817E-06
 -12.340  0.736E-06  0.736E-06
 -12.330  0.693E-06  0.693E-06
 -12.320  0.693E-06  0.693E-06
 -12.310  0.731E-06  0.731E-06
 -12.300  0.795E-06  0.795E-06
 -12.290  0.866E-06  0.866E-06
 -12.280  0.924E-06  0.924E-06
 -12.270  0.954E-06  0.954E-06
 -12.260  0.946E-06  0.946E-06
 -12.250  0.900E-06  0.900E-06
 -12.240  0.825E-06  0.825E-06
 -12.230  0.733E-06  0.733E-06
 -12.220  0.638E-06  0.638E-06
 -12.210  0.554E-06  0.554E-06
 -12.200  0.490E-06  0.490E-06
 -12.190  0.449E-06  0.449E-06
 -12.180  0.430E-06  0.430E-06
 -12.170  0.428E-06  0.428E-06
 -12.160  0.438E-06  0.438E-06
 -12.150  0.453E-06  0.453E-06
 -12.140  0.470E-06  0.470E-06
 -12.130  0.491E-06  0.491E-06
 -12.120  0.517E-06  0.517E-06
 -12.110  0.550E-06  0.550E-06
 -12.100  0.593E-06  0.593E-06
 -12.090  0.644E-06  0.644E-06
 -12.080  0.702E-06  0.702E-06
 -12.070  0.760E-06  0.760E-06
 -12.060  0.809E-06  0.809E-06
 -12.050  0.843E-06  0.843E-06
 -12.040  0.855E-06  0.855E-06
 -12.030  0.841E-06  0.841E-06
 -12.020  0.803E-06  0.803E-06
 -12.010  0.745E-06  0.745E-06
 -12.000  0.674E-06  0.674E-06
 -11.990  0.599E-06  0.599E-06
 -11.980  0.528E-06  0.528E-06
 -11.970  0.470E-06  0.470E-06
 -11.960  0.431E-06  0.431E-06
 -11.950  0.416E-06  0.416E-06
 -11.940  0.430E-06  0.430E-06
 -11.930  0.477E-06  0.477E-06
 -11.920  0.556E-06  0.556E-06
 -11.910  0.669E-06  0.669E-06
 -11.900  0.810E-06  0.810E-06
 -11.890  0.969E-06  0.969E-06
 -11.880  0.113E-05  0.113E-05
 -11.870  0.129E-05  0.129E-05
 -11.860  0.141E-05  0.141E-05
 -11.850  0.149E-05  0.149E-05
 -11.840  0.151E-05  0.151E-05
 -11.830  0.148E-05  0.148E-05
 -11.820  0.141E-05  0.141E-05
 -11.810  0.130E-05  0.130E-05
 -11.800  0.117E-05  0.117E-05
 -11.790  0.103E-05  0.103E-05
 -11.780  0.911E-06  0.911E-06
 -11.770  0.812E-06  0.812E-06
 -11.760  0.747E-06  0.747E-06
 -11.750  0.722E-06  0.722E-06
 -11.740  0.743E-06  0.743E-06
 -11.730  0.812E-06  0.812E-06
 -11.720  0.932E-06  0.932E-06
 -11.710  0.110E-05  0.110E-05
 -11.700  0.131E-05  0.131E-05
 -11.690  0.155E-05  0.155E-05
 -11.680  0.181E-05  0.181E-05
 -11.670  0.205E-05  0.205E-05
 -11.660  0.226E-05  0.226E-05
 -11.650  0.241E-05  0.241E-05
 -11.640  0.249E-05  0.249E-05
 -11.630  0.248E-05  0.248E-05
 -11.620  0.240E-05  0.240E-05
 -11.610  0.224E-05  0.224E-05
 -11.600  0.204E-05  0.204E-05
 -11.590  0.182E-05  0.182E-05
 -11.580  0.161E-05  0.161E-05
 -11.570  0.143E-05  0.143E-05
 -11.560  0.130E-05  0.130E-05
 -11.550  0.122E-05  0.122E-05
 -11.540  0.121E-05  0.121E-05
 -11.530  0.126E-05  0.126E-05
 -11.520  0.139E-05  0.139E-05
 -11.510  0.159E-05  0.159E-05
 -11.500  0.185E-05  0.185E-05
 -11.490  0.217E-05  0.217E-05
 -11.480  0.253E-05  0.253E-05
 -11.470  0.290E-05  0.290E-05
 -11.460  0.323E-05  0.323E-05
 -11.450  0.350E-05  0.350E-05
 -11.440  0.367E-05  0.367E-05
 -11.430  0.373E-05  0.373E-05
 -11.420  0.367E-05  0.367E-05
 -11.410  0.350E-05  0.350E-05
 -11.400  0.326E-05  0.326E-05
 -11.390  0.296E-05  0.296E-05
 -11.380  0.264E-05  0.264E-05
 -11.370  0.235E-05  0.235E-05
 -11.360  0.211E-05  0.211E-05
 -11.350  0.197E-05  0.197E-05
 -11.340  0.200E-05  0.200E-05
 -11.330  0.232E-05  0.232E-05
 -11.320  0.316E-05  0.316E-05
 -11.310  0.501E-05  0.501E-05
 -11.300  0.872E-05  0.872E-05
 -11.290  0.158E-04  0.158E-04
 -11.280  0.290E-04  0.290E-04
 -11.270  0.523E-04  0.523E-04
 -11.260  0.920E-04  0.920E-04
 -11.250  0.157E-03  0.157E-03
 -11.240  0.258E-03  0.258E-03
 -11.230  0.409E-03  0.409E-03
 -11.220  0.625E-03  0.625E-03
 -11.210  0.919E-03  0.919E-03
 -11.200  0.130E-02  0.130E-02
 -11.190  0.177E-02  0.177E-02
 -11.180  0.233E-02  0.233E-02
 -11.170  0.296E-02  0.296E-02
 -11.160  0.362E-02  0.362E-02
 -11.150  0.430E-02  0.430E-02
 -11.140  0.495E-02  0.495E-02
 -11.130  0.553E-02  0.553E-02
 -11.120  0.603E-02  0.603E-02
 -11.110  0.644E-02  0.644E-02
 -11.100  0.675E-02  0.675E-02
 -11.090  0.697E-02  0.697E-02
 -11.080  0.712E-02  0.712E-02
 -11.070  0.723E-02  0.723E-02
 -11.060  0.731E-02  0.731E-02
 -11.050  0.739E-02  0.739E-02
 -11.040  0.746E-02  0.746E-02
 -11.030  0.755E-02  0.755E-02
 -11.020  0.764E-02  0.764E-02
 -11.010  0.774E-02  0.774E-02
 -11.000  0.786E-02  0.786E-02
 -10.990  0.798E-02  0.798E-02
 -10.980  0.812E-02  0.812E-02
 -10.970  0.826E-02  0.826E-02
 -10.960  0.841E-02  0.841E-02
 -10.950  0.856E-02  0.856E-02
 -10.940  0.870E-02  0.870E-02
 -10.930  0.882E-02  0.882E-02
 -10.920  0.894E-02  0.894E-02
 -10.910  0.905E-02  0.905E-02
 -10.900  0.919E-02  0.919E-02
 -10.890  0.934E-02  0.934E-02
 -10.880  0.953E-02  0.953E-02
 -10.870  0.973E-02  0.973E-02
 -10.860  0.992E-02  0.992E-02
 -10.850  0.101E-01  0.101E-01
 -10.840  0.102E-01  0.102E-01
 -10.830  0.103E-01  0.103E-01
 -10.820  0.103E-01  0.103E-01
 -10.810  0.104E-01  0.104E-01
 -10.800  0.105E-01  0.105E-01
 -10.790  0.107E-01  0.107E-01
 -10.780  0.110E-01  0.110E-01
 -10.770  0.113E-01  0.113E-01
 -10.760  0.116E-01  0.116E-01
 -10.750  0.117E-01  0.117E-01
 -10.740  0.118E-01  0.118E-01
 -10.730  0.118E-01  0.118E-01
 -10.720  0.118E-01  0.118E-01
 -10.710  0.118E-01  0.118E-01
 -10.700  0.119E-01  0.119E-01
 -10.690  0.121E-01  0.121E-01
 -10.680  0.124E-01  0.124E-01
 -10.670  0.128E-01  0.128E-01
 -10.660  0.132E-01  0.132E-01
 -10.650  0.135E-01  0.135E-01
 -10.640  0.137E-01  0.137E-01
 -10.630  0.137E-01  0.137E-01
 -10.620  0.137E-01  0.137E-01
 -10.610  0.135E-01  0.135E-01
 -10.600  0.135E-01  0.135E-01
 -10.590  0.136E-01  0.136E-01
 -10.580  0.138E-01  0.138E-01
 -10.570  0.142E-01  0.142E-01
 -10.560  0.148E-01  0.148E-01
 -10.550  0.153E-01  0.153E-01
 -10.540  0.157E-01  0.157E-01
 -10.530  0.159E-01  0.159E-01
 -10.520  0.160E-01  0.160E-01
 -10.510  0.159E-01  0.159E-01
 -10.500  0.157E-01  0.157E-01
 -10.490  0.156E-01  0.156E-01
 -10.480  0.157E-01  0.157E-01
 -10.470  0.160E-01  0.160E-01
 -10.460  0.165E-01  0.165E-01
 -10.450  0.171E-01  0.171E-01
 -10.440  0.178E-01  0.178E-01
 -10.430  0.184E-01  0.184E-01
 -10.420  0.188E-01  0.188E-01
 -10.410  0.190E-01  0.190E-01
 -10.400  0.190E-01  0.190E-01
 -10.390  0.190E-01  0.190E-01
 -10.380  0.189E-01  0.189E-01
 -10.370  0.191E-01  0.191E-01
 -10.360  0.195E-01  0.195E-01
 -10.350  0.202E-01  0.202E-01
 -10.340  0.211E-01  0.211E-01
 -10.330  0.221E-01  0.221E-01
 -10.320  0.231E-01  0.231E-01
 -10.310  0.238E-01  0.238E-01
 -10.300  0.242E-01  0.242E-01
 -10.290  0.243E-01  0.243E-01
 -10.280  0.240E-01  0.240E-01
 -10.270  0.234E-01  0.234E-01
 -10.260  0.228E-01  0.228E-01
 -10.250  0.221E-01  0.221E-01
 -10.240  0.216E-01  0.216E-01
 -10.230  0.214E-01  0.214E-01
 -10.220  0.215E-01  0.215E-01
 -10.210  0.217E-01  0.217E-01
 -10.200  0.222E-01  0.222E-01
 -10.190  0.226E-01  0.226E-01
 -10.180  0.229E-01  0.229E-01
 -10.170  0.229E-01  0.229E-01
 -10.160  0.227E-01  0.227E-01
 -10.150  0.222E-01  0.222E-01
 -10.140  0.215E-01  0.215E-01
 -10.130  0.207E-01  0.207E-01
 -10.120  0.201E-01  0.201E-01
 -10.110  0.197E-01  0.197E-01
 -10.100  0.196E-01  0.196E-01
 -10.090  0.198E-01  0.198E-01
 -10.080  0.204E-01  0.204E-01
 -10.070  0.212E-01  0.212E-01
 -10.060  0.220E-01  0.220E-01
 -10.050  0.227E-01  0.227E-01
 -10.040  0.231E-01  0.231E-01
 -10.030  0.232E-01  0.232E-01
 -10.020  0.229E-01  0.229E-01
 -10.010  0.222E-01  0.222E-01
 -10.000  0.213E-01  0.213E-01
  -9.990  0.203E-01  0.203E-01
  -9.980  0.194E-01  0.194E-01
  -9.970  0.188E-01  0.188E-01
  -9.960  0.186E-01  0.186E-01
  -9.950  0.189E-01  0.189E-01
  -9.940  0.196E-01  0.196E-01
  -9.930  0.207E-01  0.207E-01
  -9.920  0.219E-01  0.219E-01
  -9.910  0.230E-01  0.230E-01
  -9.900  0.237E-01  0.237E-01
  -9.890  0.239E-01  0.239E-01
  -9.880  0.235E-01  0.235E-01
  -9.870  0.225E-01  0.225E-01
  -9.860  0.211E-01  0.211E-01
  -9.850  0.196E-01  0.196E-01
  -9.840  0.183E-01  0.183E-01
  -9.830  0.175E-01  0.175E-01
  -9.820  0.173E-01  0.173E-01
  -9.810  0.178E-01  0.178E-01
  -9.800  0.189E-01  0.189E-01
  -9.790  0.203E-01  0.203E-01
  -9.780  0.218E-01  0.218E-01
  -9.770  0.230E-01  0.230E-01
  -9.760  0.238E-01  0.238E-01
  -9.750  0.240E-01  0.240E-01
  -9.740  0.236E-01  0.236E-01
  -9.730  0.228E-01  0.228E-01
  -9.720  0.216E-01  0.216E-01
  -9.710  0.203E-01  0.203E-01
  -9.700  0.191E-01  0.191E-01
  -9.690  0.181E-01  0.181E-01
  -9.680  0.175E-01  0.175E-01
  -9.670  0.173E-01  0.173E-01
  -9.660  0.175E-01  0.175E-01
  -9.650  0.180E-01  0.180E-01
  -9.640  0.188E-01  0.188E-01
  -9.630  0.198E-01  0.198E-01
  -9.620  0.209E-01  0.209E-01
  -9.610  0.221E-01  0.221E-01
  -9.600  0.231E-01  0.231E-01
  -9.590  0.239E-01  0.239E-01
  -9.580  0.242E-01  0.242E-01
  -9.570  0.240E-01  0.240E-01
  -9.560  0.232E-01  0.232E-01
  -9.550  0.219E-01  0.219E-01
  -9.540  0.201E-01  0.201E-01
  -9.530  0.182E-01  0.182E-01
  -9.520  0.163E-01  0.163E-01
  -9.510  0.149E-01  0.149E-01
  -9.500  0.141E-01  0.141E-01
  -9.490  0.142E-01  0.142E-01
  -9.480  0.152E-01  0.152E-01
  -9.470  0.171E-01  0.171E-01
  -9.460  0.195E-01  0.195E-01
  -9.450  0.222E-01  0.222E-01
  -9.440  0.246E-01  0.246E-01
  -9.430  0.264E-01  0.264E-01
  -9.420  0.272E-01  0.272E-01
  -9.410  0.269E-01  0.269E-01
  -9.400  0.254E-01  0.254E-01
  -9.390  0.230E-01  0.230E-01
  -9.380  0.199E-01  0.199E-01
  -9.370  0.168E-01  0.168E-01
  -9.360  0.140E-01  0.140E-01
  -9.350  0.121E-01  0.121E-01
  -9.340  0.113E-01  0.113E-01
  -9.330  0.119E-01  0.119E-01
  -9.320  0.136E-01  0.136E-01
  -9.310  0.163E-01  0.163E-01
  -9.300  0.195E-01  0.195E-01
  -9.290  0.226E-01  0.226E-01
  -9.280  0.251E-01  0.251E-01
  -9.270  0.266E-01  0.266E-01
  -9.260  0.270E-01  0.270E-01
  -9.250  0.261E-01  0.261E-01
  -9.240  0.241E-01  0.241E-01
  -9.230  0.215E-01  0.215E-01
  -9.220  0.186E-01  0.186E-01
  -9.210  0.160E-01  0.160E-01
  -9.200  0.139E-01  0.139E-01
  -9.190  0.128E-01  0.128E-01
  -9.180  0.127E-01  0.127E-01
  -9.170  0.137E-01  0.137E-01
  -9.160  0.156E-01  0.156E-01
  -9.150  0.181E-01  0.181E-01
  -9.140  0.207E-01  0.207E-01
  -9.130  0.230E-01  0.230E-01
  -9.120  0.246E-01  0.246E-01
  -9.110  0.251E-01  0.251E-01
  -9.100  0.245E-01  0.245E-01
  -9.090  0.228E-01  0.228E-01
  -9.080  0.204E-01  0.204E-01
  -9.070  0.176E-01  0.176E-01
  -9.060  0.150E-01  0.150E-01
  -9.050  0.130E-01  0.130E-01
  -9.040  0.119E-01  0.119E-01
  -9.030  0.120E-01  0.120E-01
  -9.020  0.132E-01  0.132E-01
  -9.010  0.154E-01  0.154E-01
  -9.000  0.182E-01  0.182E-01
  -8.990  0.212E-01  0.212E-01
  -8.980  0.241E-01  0.241E-01
  -8.970  0.263E-01  0.263E-01
  -8.960  0.274E-01  0.274E-01
  -8.950  0.273E-01  0.273E-01
  -8.940  0.258E-01  0.258E-01
  -8.930  0.232E-01  0.232E-01
  -8.920  0.198E-01  0.198E-01
  -8.910  0.160E-01  0.160E-01
  -8.900  0.126E-01  0.126E-01
  -8.890  0.980E-02  0.980E-02
  -8.880  0.814E-02  0.814E-02
  -8.870  0.776E-02  0.776E-02
  -8.860  0.868E-02  0.868E-02
  -8.850  0.108E-01  0.108E-01
  -8.840  0.138E-01  0.138E-01
  -8.830  0.174E-01  0.174E-01
  -8.820  0.213E-01  0.213E-01
  -8.810  0.248E-01  0.248E-01
  -8.800  0.277E-01  0.277E-01
  -8.790  0.296E-01  0.296E-01
  -8.780  0.300E-01  0.300E-01
  -8.770  0.289E-01  0.289E-01
  -8.760  0.264E-01  0.264E-01
  -8.750  0.228E-01  0.228E-01
  -8.740  0.186E-01  0.186E-01
  -8.730  0.144E-01  0.144E-01
  -8.720  0.108E-01  0.108E-01
  -8.710  0.818E-02  0.818E-02
  -8.700  0.690E-02  0.690E-02
  -8.690  0.700E-02  0.700E-02
  -8.680  0.836E-02  0.836E-02
  -8.670  0.107E-01  0.107E-01
  -8.660  0.137E-01  0.137E-01
  -8.650  0.170E-01  0.170E-01
  -8.640  0.202E-01  0.202E-01
  -8.630  0.230E-01  0.230E-01
  -8.620  0.250E-01  0.250E-01
  -8.610  0.260E-01  0.260E-01
  -8.600  0.260E-01  0.260E-01
  -8.590  0.250E-01  0.250E-01
  -8.580  0.232E-01  0.232E-01
  -8.570  0.208E-01  0.208E-01
  -8.560  0.183E-01  0.183E-01
  -8.550  0.159E-01  0.159E-01
  -8.540  0.141E-01  0.141E-01
  -8.530  0.129E-01  0.129E-01
  -8.520  0.125E-01  0.125E-01
  -8.510  0.128E-01  0.128E-01
  -8.500  0.138E-01  0.138E-01
  -8.490  0.152E-01  0.152E-01
  -8.480  0.168E-01  0.168E-01
  -8.470  0.185E-01  0.185E-01
  -8.460  0.200E-01  0.200E-01
  -8.450  0.210E-01  0.210E-01
  -8.440  0.215E-01  0.215E-01
  -8.430  0.213E-01  0.213E-01
  -8.420  0.204E-01  0.204E-01
  -8.410  0.190E-01  0.190E-01
  -8.400  0.172E-01  0.172E-01
  -8.390  0.153E-01  0.153E-01
  -8.380  0.137E-01  0.137E-01
  -8.370  0.125E-01  0.125E-01
  -8.360  0.119E-01  0.119E-01
  -8.350  0.122E-01  0.122E-01
  -8.340  0.133E-01  0.133E-01
  -8.330  0.150E-01  0.150E-01
  -8.320  0.173E-01  0.173E-01
  -8.310  0.197E-01  0.197E-01
  -8.300  0.221E-01  0.221E-01
  -8.290  0.239E-01  0.239E-01
  -8.280  0.251E-01  0.251E-01
  -8.270  0.252E-01  0.252E-01
  -8.260  0.243E-01  0.243E-01
  -8.250  0.225E-01  0.225E-01
  -8.240  0.200E-01  0.200E-01
  -8.230  0.171E-01  0.171E-01
  -8.220  0.142E-01  0.142E-01
  -8.210  0.117E-01  0.117E-01
  -8.200  0.982E-02  0.982E-02
  -8.190  0.872E-02  0.872E-02
  -8.180  0.844E-02  0.844E-02
  -8.170  0.894E-02  0.894E-02
  -8.160  0.101E-01  0.101E-01
  -8.150  0.118E-01  0.118E-01
  -8.140  0.140E-01  0.140E-01
  -8.130  0.164E-01  0.164E-01
  -8.120  0.188E-01  0.188E-01
  -8.110  0.211E-01  0.211E-01
  -8.100  0.231E-01  0.231E-01
  -8.090  0.245E-01  0.245E-01
  -8.080  0.250E-01  0.250E-01
  -8.070  0.247E-01  0.247E-01
  -8.060  0.235E-01  0.235E-01
  -8.050  0.215E-01  0.215E-01
  -8.040  0.191E-01  0.191E-01
  -8.030  0.166E-01  0.166E-01
  -8.020  0.142E-01  0.142E-01
  -8.010  0.122E-01  0.122E-01
  -8.000  0.109E-01  0.109E-01
  -7.990  0.103E-01  0.103E-01
  -7.980  0.104E-01  0.104E-01
  -7.970  0.111E-01  0.111E-01
  -7.960  0.123E-01  0.123E-01
  -7.950  0.137E-01  0.137E-01
  -7.940  0.153E-01  0.153E-01
  -7.930  0.169E-01  0.169E-01
  -7.920  0.182E-01  0.182E-01
  -7.910  0.192E-01  0.192E-01
  -7.900  0.197E-01  0.197E-01
  -7.890  0.196E-01  0.196E-01
  -7.880  0.190E-01  0.190E-01
  -7.870  0.178E-01  0.178E-01
  -7.860  0.164E-01  0.164E-01
  -7.850  0.149E-01  0.149E-01
  -7.840  0.137E-01  0.137E-01
  -7.830  0.129E-01  0.129E-01
  -7.820  0.128E-01  0.128E-01
  -7.810  0.133E-01  0.133E-01
  -7.800  0.144E-01  0.144E-01
  -7.790  0.159E-01  0.159E-01
  -7.780  0.175E-01  0.175E-01
  -7.770  0.190E-01  0.190E-01
  -7.760  0.201E-01  0.201E-01
  -7.750  0.207E-01  0.207E-01
  -7.740  0.208E-01  0.208E-01
  -7.730  0.203E-01  0.203E-01
  -7.720  0.192E-01  0.192E-01
  -7.710  0.178E-01  0.178E-01
  -7.700  0.162E-01  0.162E-01
  -7.690  0.144E-01  0.144E-01
  -7.680  0.127E-01  0.127E-01
  -7.670  0.112E-01  0.112E-01
  -7.660  0.101E-01  0.101E-01
  -7.650  0.932E-02  0.932E-02
  -7.640  0.903E-02  0.903E-02
  -7.630  0.926E-02  0.926E-02
  -7.620  0.100E-01  0.100E-01
  -7.610  0.113E-01  0.113E-01
  -7.600  0.130E-01  0.130E-01
  -7.590  0.151E-01  0.151E-01
  -7.580  0.174E-01  0.174E-01
  -7.570  0.197E-01  0.197E-01
  -7.560  0.216E-01  0.216E-01
  -7.550  0.230E-01  0.230E-01
  -7.540  0.237E-01  0.237E-01
  -7.530  0.235E-01  0.235E-01
  -7.520  0.224E-01  0.224E-01
  -7.510  0.206E-01  0.206E-01
  -7.500  0.184E-01  0.184E-01
  -7.490  0.159E-01  0.159E-01
  -7.480  0.135E-01  0.135E-01
  -7.470  0.115E-01  0.115E-01
  -7.460  0.101E-01  0.101E-01
  -7.450  0.925E-02  0.925E-02
  -7.440  0.905E-02  0.905E-02
  -7.430  0.941E-02  0.941E-02
  -7.420  0.102E-01  0.102E-01
  -7.410  0.114E-01  0.114E-01
  -7.400  0.127E-01  0.127E-01
  -7.390  0.141E-01  0.141E-01
  -7.380  0.155E-01  0.155E-01
  -7.370  0.167E-01  0.167E-01
  -7.360  0.175E-01  0.175E-01
  -7.350  0.180E-01  0.180E-01
  -7.340  0.180E-01  0.180E-01
  -7.330  0.176E-01  0.176E-01
  -7.320  0.170E-01  0.170E-01
  -7.310  0.163E-01  0.163E-01
  -7.300  0.157E-01  0.157E-01
  -7.290  0.153E-01  0.153E-01
  -7.280  0.153E-01  0.153E-01
  -7.270  0.157E-01  0.157E-01
  -7.260  0.163E-01  0.163E-01
  -7.250  0.171E-01  0.171E-01
  -7.240  0.178E-01  0.178E-01
  -7.230  0.183E-01  0.183E-01
  -7.220  0.186E-01  0.186E-01
  -7.210  0.184E-01  0.184E-01
  -7.200  0.180E-01  0.180E-01
  -7.190  0.174E-01  0.174E-01
  -7.180  0.167E-01  0.167E-01
  -7.170  0.160E-01  0.160E-01
  -7.160  0.154E-01  0.154E-01
  -7.150  0.151E-01  0.151E-01
  -7.140  0.149E-01  0.149E-01
  -7.130  0.149E-01  0.149E-01
  -7.120  0.150E-01  0.150E-01
  -7.110  0.151E-01  0.151E-01
  -7.100  0.150E-01  0.150E-01
  -7.090  0.148E-01  0.148E-01
  -7.080  0.144E-01  0.144E-01
  -7.070  0.137E-01  0.137E-01
  -7.060  0.128E-01  0.128E-01
  -7.050  0.117E-01  0.117E-01
  -7.040  0.105E-01  0.105E-01
  -7.030  0.929E-02  0.929E-02
  -7.020  0.810E-02  0.810E-02
  -7.010  0.704E-02  0.704E-02
  -7.000  0.621E-02  0.621E-02
  -6.990  0.569E-02  0.569E-02
  -6.980  0.555E-02  0.555E-02
  -6.970  0.579E-02  0.579E-02
  -6.960  0.639E-02  0.639E-02
  -6.950  0.724E-02  0.724E-02
  -6.940  0.820E-02  0.820E-02
  -6.930  0.914E-02  0.914E-02
  -6.920  0.992E-02  0.992E-02
  -6.910  0.105E-01  0.105E-01
  -6.900  0.107E-01  0.107E-01
  -6.890  0.108E-01  0.108E-01
  -6.880  0.108E-01  0.108E-01
  -6.870  0.107E-01  0.107E-01
  -6.860  0.107E-01  0.107E-01
  -6.850  0.108E-01  0.108E-01
  -6.840  0.111E-01  0.111E-01
  -6.830  0.115E-01  0.115E-01
  -6.820  0.120E-01  0.120E-01
  -6.810  0.125E-01  0.125E-01
  -6.800  0.131E-01  0.131E-01
  -6.790  0.135E-01  0.135E-01
  -6.780  0.138E-01  0.138E-01
  -6.770  0.138E-01  0.138E-01
  -6.760  0.136E-01  0.136E-01
  -6.750  0.132E-01  0.132E-01
  -6.740  0.127E-01  0.127E-01
  -6.730  0.121E-01  0.121E-01
  -6.720  0.116E-01  0.116E-01
  -6.710  0.113E-01  0.113E-01
  -6.700  0.113E-01  0.113E-01
  -6.690  0.116E-01  0.116E-01
  -6.680  0.120E-01  0.120E-01
  -6.670  0.126E-01  0.126E-01
  -6.660  0.131E-01  0.131E-01
  -6.650  0.134E-01  0.134E-01
  -6.640  0.135E-01  0.135E-01
  -6.630  0.133E-01  0.133E-01
  -6.620  0.127E-01  0.127E-01
  -6.610  0.120E-01  0.120E-01
  -6.600  0.112E-01  0.112E-01
  -6.590  0.104E-01  0.104E-01
  -6.580  0.962E-02  0.962E-02
  -6.570  0.892E-02  0.892E-02
  -6.560  0.833E-02  0.833E-02
  -6.550  0.787E-02  0.787E-02
  -6.540  0.757E-02  0.757E-02
  -6.530  0.743E-02  0.743E-02
  -6.520  0.750E-02  0.750E-02
  -6.510  0.780E-02  0.780E-02
  -6.500  0.836E-02  0.836E-02
  -6.490  0.919E-02  0.919E-02
  -6.480  0.103E-01  0.103E-01
  -6.470  0.115E-01  0.115E-01
  -6.460  0.128E-01  0.128E-01
  -6.450  0.140E-01  0.140E-01
  -6.440  0.150E-01  0.150E-01
  -6.430  0.155E-01  0.155E-01
  -6.420  0.155E-01  0.155E-01
  -6.410  0.150E-01  0.150E-01
  -6.400  0.140E-01  0.140E-01
  -6.390  0.127E-01  0.127E-01
  -6.380  0.113E-01  0.113E-01
  -6.370  0.991E-02  0.991E-02
  -6.360  0.873E-02  0.873E-02
  -6.350  0.786E-02  0.786E-02
  -6.340  0.735E-02  0.735E-02
  -6.330  0.717E-02  0.717E-02
  -6.320  0.724E-02  0.724E-02
  -6.310  0.747E-02  0.747E-02
  -6.300  0.773E-02  0.773E-02
  -6.290  0.795E-02  0.795E-02
  -6.280  0.805E-02  0.805E-02
  -6.270  0.803E-02  0.803E-02
  -6.260  0.788E-02  0.788E-02
  -6.250  0.766E-02  0.766E-02
  -6.240  0.740E-02  0.740E-02
  -6.230  0.716E-02  0.716E-02
  -6.220  0.698E-02  0.698E-02
  -6.210  0.687E-02  0.687E-02
  -6.200  0.687E-02  0.687E-02
  -6.190  0.697E-02  0.697E-02
  -6.180  0.719E-02  0.719E-02
  -6.170  0.752E-02  0.752E-02
  -6.160  0.797E-02  0.797E-02
  -6.150  0.852E-02  0.852E-02
  -6.140  0.915E-02  0.915E-02
  -6.130  0.981E-02  0.981E-02
  -6.120  0.104E-01  0.104E-01
  -6.110  0.109E-01  0.109E-01
  -6.100  0.112E-01  0.112E-01
  -6.090  0.112E-01  0.112E-01
  -6.080  0.108E-01  0.108E-01
  -6.070  0.102E-01  0.102E-01
  -6.060  0.933E-02  0.933E-02
  -6.050  0.830E-02  0.830E-02
  -6.040  0.723E-02  0.723E-02
  -6.030  0.624E-02  0.624E-02
  -6.020  0.542E-02  0.542E-02
  -6.010  0.485E-02  0.485E-02
  -6.000  0.454E-02  0.454E-02
  -5.990  0.450E-02  0.450E-02
  -5.980  0.467E-02  0.467E-02
  -5.970  0.502E-02  0.502E-02
  -5.960  0.552E-02  0.552E-02
  -5.950  0.613E-02  0.613E-02
  -5.940  0.683E-02  0.683E-02
  -5.930  0.762E-02  0.762E-02
  -5.920  0.847E-02  0.847E-02
  -5.910  0.932E-02  0.932E-02
  -5.900  0.101E-01  0.101E-01
  -5.890  0.107E-01  0.107E-01
  -5.880  0.110E-01  0.110E-01
  -5.870  0.110E-01  0.110E-01
  -5.860  0.106E-01  0.106E-01
  -5.850  0.987E-02  0.987E-02
  -5.840  0.891E-02  0.891E-02
  -5.830  0.784E-02  0.784E-02
  -5.820  0.679E-02  0.679E-02
  -5.810  0.589E-02  0.589E-02
  -5.800  0.522E-02  0.522E-02
  -5.790  0.482E-02  0.482E-02
  -5.780  0.469E-02  0.469E-02
  -5.770  0.479E-02  0.479E-02
  -5.760  0.503E-02  0.503E-02
  -5.750  0.535E-02  0.535E-02
  -5.740  0.568E-02  0.568E-02
  -5.730  0.595E-02  0.595E-02
  -5.720  0.614E-02  0.614E-02
  -5.710  0.624E-02  0.624E-02
  -5.700  0.625E-02  0.625E-02
  -5.690  0.620E-02  0.620E-02
  -5.680  0.611E-02  0.611E-02
  -5.670  0.600E-02  0.600E-02
  -5.660  0.593E-02  0.593E-02
  -5.650  0.592E-02  0.592E-02
  -5.640  0.601E-02  0.601E-02
  -5.630  0.624E-02  0.624E-02
  -5.620  0.662E-02  0.662E-02
  -5.610  0.713E-02  0.713E-02
  -5.600  0.773E-02  0.773E-02
  -5.590  0.833E-02  0.833E-02
  -5.580  0.882E-02  0.882E-02
  -5.570  0.909E-02  0.909E-02
  -5.560  0.904E-02  0.904E-02
  -5.550  0.864E-02  0.864E-02
  -5.540  0.788E-02  0.788E-02
  -5.530  0.686E-02  0.686E-02
  -5.520  0.570E-02  0.570E-02
  -5.510  0.456E-02  0.456E-02
  -5.500  0.358E-02  0.358E-02
  -5.490  0.288E-02  0.288E-02
  -5.480  0.252E-02  0.252E-02
  -5.470  0.249E-02  0.249E-02
  -5.460  0.276E-02  0.276E-02
  -5.450  0.323E-02  0.323E-02
  -5.440  0.381E-02  0.381E-02
  -5.430  0.444E-02  0.444E-02
  -5.420  0.506E-02  0.506E-02
  -5.410  0.562E-02  0.562E-02
  -5.400  0.612E-02  0.612E-02
  -5.390  0.656E-02  0.656E-02
  -5.380  0.691E-02  0.691E-02
  -5.370  0.717E-02  0.717E-02
  -5.360  0.732E-02  0.732E-02
  -5.350  0.733E-02  0.733E-02
  -5.340  0.720E-02  0.720E-02
  -5.330  0.693E-02  0.693E-02
  -5.320  0.656E-02  0.656E-02
  -5.310  0.612E-02  0.612E-02
  -5.300  0.567E-02  0.567E-02
  -5.290  0.525E-02  0.525E-02
  -5.280  0.489E-02  0.489E-02
  -5.270  0.462E-02  0.462E-02
  -5.260  0.442E-02  0.442E-02
  -5.250  0.427E-02  0.427E-02
  -5.240  0.416E-02  0.416E-02
  -5.230  0.405E-02  0.405E-02
  -5.220  0.392E-02  0.392E-02
  -5.210  0.376E-02  0.376E-02
  -5.200  0.360E-02  0.360E-02
  -5.190  0.346E-02  0.346E-02
  -5.180  0.337E-02  0.337E-02
  -5.170  0.336E-02  0.336E-02
  -5.160  0.345E-02  0.345E-02
  -5.150  0.365E-02  0.365E-02
  -5.140  0.395E-02  0.395E-02
  -5.130  0.433E-02  0.433E-02
  -5.120  0.475E-02  0.475E-02
  -5.110  0.521E-02  0.521E-02
  -5.100  0.566E-02  0.566E-02
  -5.090  0.607E-02  0.607E-02
  -5.080  0.638E-02  0.638E-02
  -5.070  0.655E-02  0.655E-02
  -5.060  0.653E-02  0.653E-02
  -5.050  0.628E-02  0.628E-02
  -5.040  0.580E-02  0.580E-02
  -5.030  0.513E-02  0.513E-02
  -5.020  0.435E-02  0.435E-02
  -5.010  0.356E-02  0.356E-02
  -5.000  0.286E-02  0.286E-02
  -4.990  0.235E-02  0.235E-02
  -4.980  0.208E-02  0.208E-02
  -4.970  0.205E-02  0.205E-02
  -4.960  0.222E-02  0.222E-02
  -4.950  0.253E-02  0.253E-02
  -4.940  0.289E-02  0.289E-02
  -4.930  0.324E-02  0.324E-02
  -4.920  0.352E-02  0.352E-02
  -4.910  0.373E-02  0.373E-02
  -4.900  0.386E-02  0.386E-02
  -4.890  0.394E-02  0.394E-02
  -4.880  0.401E-02  0.401E-02
  -4.870  0.408E-02  0.408E-02
  -4.860  0.419E-02  0.419E-02
  -4.850  0.432E-02  0.432E-02
  -4.840  0.445E-02  0.445E-02
  -4.830  0.458E-02  0.458E-02
  -4.820  0.466E-02  0.466E-02
  -4.810  0.466E-02  0.466E-02
  -4.800  0.458E-02  0.458E-02
  -4.790  0.440E-02  0.440E-02
  -4.780  0.411E-02  0.411E-02
  -4.770  0.374E-02  0.374E-02
  -4.760  0.330E-02  0.330E-02
  -4.750  0.284E-02  0.284E-02
  -4.740  0.238E-02  0.238E-02
  -4.730  0.199E-02  0.199E-02
  -4.720  0.171E-02  0.171E-02
  -4.710  0.157E-02  0.157E-02
  -4.700  0.159E-02  0.159E-02
  -4.690  0.177E-02  0.177E-02
  -4.680  0.207E-02  0.207E-02
  -4.670  0.245E-02  0.245E-02
  -4.660  0.287E-02  0.287E-02
  -4.650  0.328E-02  0.328E-02
  -4.640  0.362E-02  0.362E-02
  -4.630  0.389E-02  0.389E-02
  -4.620  0.405E-02  0.405E-02
  -4.610  0.409E-02  0.409E-02
  -4.600  0.404E-02  0.404E-02
  -4.590  0.388E-02  0.388E-02
  -4.580  0.364E-02  0.364E-02
  -4.570  0.334E-02  0.334E-02
  -4.560  0.301E-02  0.301E-02
  -4.550  0.269E-02  0.269E-02
  -4.540  0.239E-02  0.239E-02
  -4.530  0.216E-02  0.216E-02
  -4.520  0.199E-02  0.199E-02
  -4.510  0.190E-02  0.190E-02
  -4.500  0.185E-02  0.185E-02
  -4.490  0.184E-02  0.184E-02
  -4.480  0.184E-02  0.184E-02
  -4.470  0.184E-02  0.184E-02
  -4.460  0.185E-02  0.185E-02
  -4.450  0.188E-02  0.188E-02
  -4.440  0.194E-02  0.194E-02
  -4.430  0.206E-02  0.206E-02
  -4.420  0.224E-02  0.224E-02
  -4.410  0.245E-02  0.245E-02
  -4.400  0.269E-02  0.269E-02
  -4.390  0.290E-02  0.290E-02
  -4.380  0.305E-02  0.305E-02
  -4.370  0.310E-02  0.310E-02
  -4.360  0.304E-02  0.304E-02
  -4.350  0.286E-02  0.286E-02
  -4.340  0.258E-02  0.258E-02
  -4.330  0.224E-02  0.224E-02
  -4.320  0.187E-02  0.187E-02
  -4.310  0.154E-02  0.154E-02
  -4.300  0.128E-02  0.128E-02
  -4.290  0.112E-02  0.112E-02
  -4.280  0.106E-02  0.106E-02
  -4.270  0.111E-02  0.111E-02
  -4.260  0.123E-02  0.123E-02
  -4.250  0.140E-02  0.140E-02
  -4.240  0.158E-02  0.158E-02
  -4.230  0.175E-02  0.175E-02
  -4.220  0.189E-02  0.189E-02
  -4.210  0.199E-02  0.199E-02
  -4.200  0.206E-02  0.206E-02
  -4.190  0.209E-02  0.209E-02
  -4.180  0.209E-02  0.209E-02
  -4.170  0.205E-02  0.205E-02
  -4.160  0.197E-02  0.197E-02
  -4.150  0.184E-02  0.184E-02
  -4.140  0.168E-02  0.168E-02
  -4.130  0.148E-02  0.148E-02
  -4.120  0.129E-02  0.129E-02
  -4.110  0.111E-02  0.111E-02
  -4.100  0.968E-03  0.968E-03
  -4.090  0.883E-03  0.883E-03
  -4.080  0.863E-03  0.863E-03
  -4.070  0.906E-03  0.906E-03
  -4.060  0.100E-02  0.100E-02
  -4.050  0.113E-02  0.113E-02
  -4.040  0.126E-02  0.126E-02
  -4.030  0.138E-02  0.138E-02
  -4.020  0.146E-02  0.146E-02
  -4.010  0.149E-02  0.149E-02
  -4.000  0.147E-02  0.147E-02
  -3.990  0.140E-02  0.140E-02
  -3.980  0.129E-02  0.129E-02
  -3.970  0.115E-02  0.115E-02
  -3.960  0.101E-02  0.101E-02
  -3.950  0.886E-03  0.886E-03
  -3.940  0.779E-03  0.779E-03
  -3.930  0.704E-03  0.704E-03
  -3.920  0.665E-03  0.665E-03
  -3.910  0.660E-03  0.660E-03
  -3.900  0.684E-03  0.684E-03
  -3.890  0.726E-03  0.726E-03
  -3.880  0.776E-03  0.776E-03
  -3.870  0.820E-03  0.820E-03
  -3.860  0.848E-03  0.848E-03
  -3.850  0.851E-03  0.851E-03
  -3.840  0.827E-03  0.827E-03
  -3.830  0.777E-03  0.777E-03
  -3.820  0.709E-03  0.709E-03
  -3.810  0.635E-03  0.635E-03
  -3.800  0.566E-03  0.566E-03
  -3.790  0.511E-03  0.511E-03
  -3.780  0.475E-03  0.475E-03
  -3.770  0.457E-03  0.457E-03
  -3.760  0.454E-03  0.454E-03
  -3.750  0.457E-03  0.457E-03
  -3.740  0.460E-03  0.460E-03
  -3.730  0.455E-03  0.455E-03
  -3.720  0.440E-03  0.440E-03
  -3.710  0.413E-03  0.413E-03
  -3.700  0.377E-03  0.377E-03
  -3.690  0.336E-03  0.336E-03
  -3.680  0.294E-03  0.294E-03
  -3.670  0.256E-03  0.256E-03
  -3.660  0.222E-03  0.222E-03
  -3.650  0.195E-03  0.195E-03
  -3.640  0.172E-03  0.172E-03
  -3.630  0.153E-03  0.153E-03
  -3.620  0.136E-03  0.136E-03
  -3.610  0.120E-03  0.120E-03
  -3.600  0.105E-03  0.105E-03
  -3.590  0.917E-04  0.917E-04
  -3.580  0.807E-04  0.807E-04
  -3.570  0.728E-04  0.728E-04
  -3.560  0.683E-04  0.683E-04
  -3.550  0.671E-04  0.671E-04
  -3.540  0.685E-04  0.685E-04
  -3.530  0.714E-04  0.714E-04
  -3.520  0.746E-04  0.746E-04
  -3.510  0.772E-04  0.772E-04
  -3.500  0.784E-04  0.784E-04
  -3.490  0.778E-04  0.778E-04
  -3.480  0.754E-04  0.754E-04
  -3.470  0.714E-04  0.714E-04
  -3.460  0.665E-04  0.665E-04
  -3.450  0.613E-04  0.613E-04
  -3.440  0.561E-04  0.561E-04
  -3.430  0.515E-04  0.515E-04
  -3.420  0.478E-04  0.478E-04
  -3.410  0.449E-04  0.449E-04
  -3.400  0.430E-04  0.430E-04
  -3.390  0.421E-04  0.421E-04
  -3.380  0.420E-04  0.420E-04
  -3.370  0.428E-04  0.428E-04
  -3.360  0.445E-04  0.445E-04
  -3.350  0.471E-04  0.471E-04
  -3.340  0.504E-04  0.504E-04
  -3.330  0.544E-04  0.544E-04
  -3.320  0.587E-04  0.587E-04
  -3.310  0.630E-04  0.630E-04
  -3.300  0.669E-04  0.669E-04
  -3.290  0.700E-04  0.700E-04
  -3.280  0.719E-04  0.719E-04
  -3.270  0.724E-04  0.724E-04
  -3.260  0.713E-04  0.713E-04
  -3.250  0.687E-04  0.687E-04
  -3.240  0.647E-04  0.647E-04
  -3.230  0.596E-04  0.596E-04
  -3.220  0.539E-04  0.539E-04
  -3.210  0.481E-04  0.481E-04
  -3.200  0.426E-04  0.426E-04
  -3.190  0.378E-04  0.378E-04
  -3.180  0.339E-04  0.339E-04
  -3.170  0.312E-04  0.312E-04
  -3.160  0.296E-04  0.296E-04
  -3.150  0.293E-04  0.293E-04
  -3.140  0.300E-04  0.300E-04
  -3.130  0.316E-04  0.316E-04
  -3.120  0.339E-04  0.339E-04
  -3.110  0.366E-04  0.366E-04
  -3.100  0.392E-04  0.392E-04
  -3.090  0.416E-04  0.416E-04
  -3.080  0.434E-04  0.434E-04
  -3.070  0.444E-04  0.444E-04
  -3.060  0.445E-04  0.445E-04
  -3.050  0.437E-04  0.437E-04
  -3.040  0.419E-04  0.419E-04
  -3.030  0.393E-04  0.393E-04
  -3.020  0.361E-04  0.361E-04
  -3.010  0.324E-04  0.324E-04
  -3.000  0.285E-04  0.285E-04
  -2.990  0.249E-04  0.249E-04
  -2.980  0.219E-04  0.219E-04
  -2.970  0.200E-04  0.200E-04
  -2.960  0.193E-04  0.193E-04
  -2.950  0.200E-04  0.200E-04
  -2.940  0.219E-04  0.219E-04
  -2.930  0.246E-04  0.246E-04
  -2.920  0.274E-04  0.274E-04
  -2.910  0.299E-04  0.299E-04
  -2.900  0.314E-04  0.314E-04
  -2.890  0.316E-04  0.316E-04
  -2.880  0.305E-04  0.305E-04
  -2.870  0.284E-04  0.284E-04
  -2.860  0.255E-04  0.255E-04
  -2.850  0.224E-04  0.224E-04
  -2.840  0.197E-04  0.197E-04
  -2.830  0.175E-04  0.175E-04
  -2.820  0.161E-04  0.161E-04
  -2.810  0.153E-04  0.153E-04
  -2.800  0.152E-04  0.152E-04
  -2.790  0.155E-04  0.155E-04
  -2.780  0.162E-04  0.162E-04
  -2.770  0.171E-04  0.171E-04
  -2.760  0.182E-04  0.182E-04
  -2.750  0.195E-04  0.195E-04
  -2.740  0.209E-04  0.209E-04
  -2.730  0.222E-04  0.222E-04
  -2.720  0.232E-04  0.232E-04
  -2.710  0.237E-04  0.237E-04
  -2.700  0.235E-04  0.235E-04
  -2.690  0.226E-04  0.226E-04
  -2.680  0.209E-04  0.209E-04
  -2.670  0.187E-04  0.187E-04
  -2.660  0.163E-04  0.163E-04
  -2.650  0.138E-04  0.138E-04
  -2.640  0.116E-04  0.116E-04
  -2.630  0.995E-05  0.995E-05
  -2.620  0.885E-05  0.885E-05
  -2.610  0.835E-05  0.835E-05
  -2.600  0.840E-05  0.840E-05
  -2.590  0.892E-05  0.892E-05
  -2.580  0.984E-05  0.984E-05
  -2.570  0.111E-04  0.111E-04
  -2.560  0.125E-04  0.125E-04
  -2.550  0.141E-04  0.141E-04
  -2.540  0.156E-04  0.156E-04
  -2.530  0.169E-04  0.169E-04
  -2.520  0.179E-04  0.179E-04
  -2.510  0.183E-04  0.183E-04
  -2.500  0.180E-04  0.180E-04
  -2.490  0.171E-04  0.171E-04
  -2.480  0.155E-04  0.155E-04
  -2.470  0.135E-04  0.135E-04
  -2.460  0.112E-04  0.112E-04
  -2.450  0.894E-05  0.894E-05
  -2.440  0.697E-05  0.697E-05
  -2.430  0.546E-05  0.546E-05
  -2.420  0.452E-05  0.452E-05
  -2.410  0.417E-05  0.417E-05
  -2.400  0.436E-05  0.436E-05
  -2.390  0.500E-05  0.500E-05
  -2.380  0.594E-05  0.594E-05
  -2.370  0.708E-05  0.708E-05
  -2.360  0.830E-05  0.830E-05
  -2.350  0.951E-05  0.951E-05
  -2.340  0.106E-04  0.106E-04
  -2.330  0.116E-04  0.116E-04
  -2.320  0.122E-04  0.122E-04
  -2.310  0.126E-04  0.126E-04
  -2.300  0.125E-04  0.125E-04
  -2.290  0.121E-04  0.121E-04
  -2.280  0.111E-04  0.111E-04
  -2.270  0.981E-05  0.981E-05
  -2.260  0.825E-05  0.825E-05
  -2.250  0.659E-05  0.659E-05
  -2.240  0.501E-05  0.501E-05
  -2.230  0.367E-05  0.367E-05
  -2.220  0.267E-05  0.267E-05
  -2.210  0.207E-05  0.207E-05
  -2.200  0.186E-05  0.186E-05
  -2.190  0.199E-05  0.199E-05
  -2.180  0.238E-05  0.238E-05
  -2.170  0.296E-05  0.296E-05
  -2.160  0.366E-05  0.366E-05
  -2.150  0.443E-05  0.443E-05
  -2.140  0.524E-05  0.524E-05
  -2.130  0.605E-05  0.605E-05
  -2.120  0.681E-05  0.681E-05
  -2.110  0.746E-05  0.746E-05
  -2.100  0.792E-05  0.792E-05
  -2.090  0.814E-05  0.814E-05
  -2.080  0.806E-05  0.806E-05
  -2.070  0.764E-05  0.764E-05
  -2.060  0.692E-05  0.692E-05
  -2.050  0.596E-05  0.596E-05
  -2.040  0.486E-05  0.486E-05
  -2.030  0.373E-05  0.373E-05
  -2.020  0.270E-05  0.270E-05
  -2.010  0.186E-05  0.186E-05
  -2.000  0.126E-05  0.126E-05
  -1.990  0.909E-06  0.909E-06
  -1.980  0.796E-06  0.796E-06
  -1.970  0.870E-06  0.870E-06
  -1.960  0.108E-05  0.108E-05
  -1.950  0.139E-05  0.139E-05
  -1.940  0.177E-05  0.177E-05
  -1.930  0.218E-05  0.218E-05
  -1.920  0.263E-05  0.263E-05
  -1.910  0.309E-05  0.309E-05
  -1.900  0.354E-05  0.354E-05
  -1.890  0.396E-05  0.396E-05
  -1.880  0.430E-05  0.430E-05
  -1.870  0.453E-05  0.453E-05
  -1.860  0.462E-05  0.462E-05
  -1.850  0.454E-05  0.454E-05
  -1.840  0.429E-05  0.429E-05
  -1.830  0.388E-05  0.388E-05
  -1.820  0.334E-05  0.334E-05
  -1.810  0.273E-05  0.273E-05
  -1.800  0.211E-05  0.211E-05
  -1.790  0.153E-05  0.153E-05
  -1.780  0.104E-05  0.104E-05
  -1.770  0.659E-06  0.659E-06
  -1.760  0.408E-06  0.408E-06
  -1.750  0.275E-06  0.275E-06
  -1.740  0.239E-06  0.239E-06
  -1.730  0.281E-06  0.281E-06
  -1.720  0.381E-06  0.381E-06
  -1.710  0.526E-06  0.526E-06
  -1.700  0.709E-06  0.709E-06
  -1.690  0.923E-06  0.923E-06
  -1.680  0.116E-05  0.116E-05
  -1.670  0.141E-05  0.141E-05
  -1.660  0.165E-05  0.165E-05
  -1.650  0.187E-05  0.187E-05
  -1.640  0.204E-05  0.204E-05
  -1.630  0.215E-05  0.215E-05
  -1.620  0.219E-05  0.219E-05
  -1.610  0.214E-05  0.214E-05
  -1.600  0.201E-05  0.201E-05
  -1.590  0.181E-05  0.181E-05
  -1.580  0.156E-05  0.156E-05
  -1.570  0.126E-05  0.126E-05
  -1.560  0.958E-06  0.958E-06
  -1.550  0.667E-06  0.667E-06
  -1.540  0.412E-06  0.412E-06
  -1.530  0.208E-06  0.208E-06
  -1.520  0.606E-07  0.606E-07
  -1.510 -0.295E-07 -0.295E-07
  -1.500 -0.685E-07 -0.685E-07
  -1.490 -0.648E-07 -0.648E-07
  -1.480 -0.272E-07 -0.272E-07
  -1.470  0.368E-07  0.368E-07
  -1.460  0.122E-06  0.122E-06
  -1.450  0.222E-06  0.222E-06
  -1.440  0.334E-06  0.334E-06
  -1.430  0.449E-06  0.449E-06
  -1.420  0.561E-06  0.561E-06
  -1.410  0.659E-06  0.659E-06
  -1.400  0.735E-06  0.735E-06
  -1.390  0.780E-06  0.780E-06
  -1.380  0.790E-06  0.790E-06
  -1.370  0.765E-06  0.765E-06
  -1.360  0.706E-06  0.706E-06
  -1.350  0.620E-06  0.620E-06
  -1.340  0.515E-06  0.515E-06
  -1.330  0.402E-06  0.402E-06
  -1.320  0.289E-06  0.289E-06
  -1.310  0.185E-06  0.185E-06
  -1.300  0.952E-07  0.952E-07
  -1.290  0.245E-07  0.245E-07
  -1.280 -0.257E-07 -0.257E-07
  -1.270 -0.561E-07 -0.561E-07
  -1.260 -0.691E-07 -0.691E-07
  -1.250 -0.681E-07 -0.681E-07
  -1.240 -0.569E-07 -0.569E-07
  -1.230 -0.388E-07 -0.388E-07
  -1.220 -0.165E-07 -0.165E-07
  -1.210  0.831E-08  0.831E-08
  -1.200  0.344E-07  0.344E-07
  -1.190  0.607E-07  0.607E-07
  -1.180  0.862E-07  0.862E-07
  -1.170  0.109E-06  0.109E-06
  -1.160  0.128E-06  0.128E-06
  -1.150  0.140E-06  0.140E-06
  -1.140  0.144E-06  0.144E-06
  -1.130  0.139E-06  0.139E-06
  -1.120  0.126E-06  0.126E-06
  -1.110  0.105E-06  0.105E-06
  -1.100  0.807E-07  0.807E-07
  -1.090  0.548E-07  0.548E-07
  -1.080  0.306E-07  0.306E-07
  -1.070  0.106E-07  0.106E-07
  -1.060 -0.410E-08 -0.410E-08
  -1.050 -0.132E-07 -0.132E-07
  -1.040 -0.174E-07 -0.174E-07
  -1.030 -0.180E-07 -0.180E-07
  -1.020 -0.161E-07 -0.161E-07
  -1.010 -0.131E-07 -0.131E-07
  -1.000 -0.980E-08 -0.980E-08
  -0.990 -0.687E-08 -0.687E-08
  -0.980 -0.452E-08 -0.452E-08
  -0.970 -0.281E-08 -0.281E-08
  -0.960 -0.165E-08 -0.165E-08
  -0.950 -0.923E-09 -0.923E-09
  -0.940 -0.490E-09 -0.490E-09
  -0.930 -0.247E-09 -0.247E-09
  -0.920 -0.119E-09 -0.119E-09
  -0.910 -0.544E-10 -0.544E-10
  -0.900 -0.238E-10 -0.238E-10
  -0.890 -0.990E-11 -0.990E-11
  -0.880 -0.393E-11 -0.393E-11
  -0.870 -0.147E-11 -0.147E-11
  -0.860 -0.454E-12 -0.454E-12
  -0.850  0.828E-13  0.828E-13
  -0.840  0.733E-12  0.733E-12
  -0.830  0.222E-11  0.222E-11
  -0.820  0.600E-11  0.600E-11
  -0.810  0.154E-10  0.154E-10
  -0.800  0.380E-10  0.380E-10
  -0.790  0.893E-10  0.893E-10
  -0.780  0.201E-09  0.201E-09
  -0.770  0.432E-09  0.432E-09
  -0.760  0.887E-09  0.887E-09
  -0.750  0.174E-08  0.174E-08
  -0.740  0.327E-08  0.327E-08
  -0.730  0.586E-08  0.586E-08
  -0.720  0.100E-07  0.100E-07
  -0.710  0.164E-07  0.164E-07
  -0.700  0.256E-07  0.256E-07
  -0.690  0.381E-07  0.381E-07
  -0.680  0.540E-07  0.540E-07
  -0.670  0.731E-07  0.731E-07
  -0.660  0.940E-07  0.940E-07
  -0.650  0.115E-06  0.115E-06
  -0.640  0.134E-06  0.134E-06
  -0.630  0.148E-06  0.148E-06
  -0.620  0.154E-06  0.154E-06
  -0.610  0.152E-06  0.152E-06
  -0.600  0.141E-06  0.141E-06
  -0.590  0.124E-06  0.124E-06
  -0.580  0.102E-06  0.102E-06
  -0.570  0.804E-07  0.804E-07
  -0.560  0.639E-07  0.639E-07
  -0.550  0.570E-07  0.570E-07
  -0.540  0.634E-07  0.634E-07
  -0.530  0.856E-07  0.856E-07
  -0.520  0.125E-06  0.125E-06
  -0.510  0.179E-06  0.179E-06
  -0.500  0.247E-06  0.247E-06
  -0.490  0.322E-06  0.322E-06
  -0.480  0.397E-06  0.397E-06
  -0.470  0.467E-06  0.467E-06
  -0.460  0.523E-06  0.523E-06
  -0.450  0.562E-06  0.562E-06
  -0.440  0.582E-06  0.582E-06
  -0.430  0.588E-06  0.588E-06
  -0.420  0.585E-06  0.585E-06
  -0.410  0.581E-06  0.581E-06
  -0.400  0.582E-06  0.582E-06
  -0.390  0.592E-06  0.592E-06
  -0.380  0.608E-06  0.608E-06
  -0.370  0.628E-06  0.628E-06
  -0.360  0.646E-06  0.646E-06
  -0.350  0.661E-06  0.661E-06
  -0.340  0.677E-06  0.677E-06
  -0.330  0.703E-06  0.703E-06
  -0.320  0.754E-06  0.754E-06
  -0.310  0.848E-06  0.848E-06
  -0.300  0.993E-06  0.993E-06
  -0.290  0.119E-05  0.119E-05
  -0.280  0.143E-05  0.143E-05
  -0.270  0.169E-05  0.169E-05
  -0.260  0.192E-05  0.192E-05
  -0.250  0.209E-05  0.209E-05
  -0.240  0.216E-05  0.216E-05
  -0.230  0.212E-05  0.212E-05
  -0.220  0.196E-05  0.196E-05
  -0.210  0.173E-05  0.173E-05
  -0.200  0.147E-05  0.147E-05
  -0.190  0.124E-05  0.124E-05
  -0.180  0.110E-05  0.110E-05
  -0.170  0.109E-05  0.109E-05
  -0.160  0.123E-05  0.123E-05
  -0.150  0.154E-05  0.154E-05
  -0.140  0.199E-05  0.199E-05
  -0.130  0.253E-05  0.253E-05
  -0.120  0.311E-05  0.311E-05
  -0.110  0.368E-05  0.368E-05
  -0.100  0.417E-05  0.417E-05
  -0.090  0.456E-05  0.456E-05
  -0.080  0.483E-05  0.483E-05
  -0.070  0.496E-05  0.496E-05
  -0.060  0.499E-05  0.499E-05
  -0.050  0.492E-05  0.492E-05
  -0.040  0.479E-05  0.479E-05
  -0.030  0.460E-05  0.460E-05
  -0.020  0.437E-05  0.437E-05
  -0.010  0.415E-05  0.415E-05
   0.000  0.396E-05  0.396E-05
   0.010  0.386E-05  0.386E-05
   0.020  0.390E-05  0.390E-05
   0.030  0.414E-05  0.414E-05
   0.040  0.461E-05  0.461E-05
   0.050  0.527E-05  0.527E-05
   0.060  0.606E-05  0.606E-05
   0.070  0.689E-05  0.689E-05
   0.080  0.763E-05  0.763E-05
   0.090  0.822E-05  0.822E-05
   0.100  0.859E-05  0.859E-05
   0.110  0.877E-05  0.877E-05
   0.120  0.884E-05  0.884E-05
   0.130  0.891E-05  0.891E-05
   0.140  0.911E-05  0.911E-05
   0.150  0.954E-05  0.954E-05
   0.160  0.102E-04  0.102E-04
   0.170  0.112E-04  0.112E-04
   0.180  0.122E-04  0.122E-04
   0.190  0.134E-04  0.134E-04
   0.200  0.143E-04  0.143E-04
   0.210  0.151E-04  0.151E-04
   0.220  0.155E-04  0.155E-04
   0.230  0.157E-04  0.157E-04
   0.240  0.155E-04  0.155E-04
   0.250  0.151E-04  0.151E-04
   0.260  0.147E-04  0.147E-04
   0.270  0.143E-04  0.143E-04
   0.280  0.141E-04  0.141E-04
   0.290  0.142E-04  0.142E-04
   0.300  0.146E-04  0.146E-04
   0.310  0.153E-04  0.153E-04
   0.320  0.165E-04  0.165E-04
   0.330  0.179E-04  0.179E-04
   0.340  0.196E-04  0.196E-04
   0.350  0.215E-04  0.215E-04
   0.360  0.235E-04  0.235E-04
   0.370  0.258E-04  0.258E-04
   0.380  0.283E-04  0.283E-04
   0.390  0.310E-04  0.310E-04
   0.400  0.339E-04  0.339E-04
   0.410  0.369E-04  0.369E-04
   0.420  0.397E-04  0.397E-04
   0.430  0.422E-04  0.422E-04
   0.440  0.440E-04  0.440E-04
   0.450  0.451E-04  0.451E-04
   0.460  0.454E-04  0.454E-04
   0.470  0.450E-04  0.450E-04
   0.480  0.440E-04  0.440E-04
   0.490  0.428E-04  0.428E-04
   0.500  0.416E-04  0.416E-04
   0.510  0.405E-04  0.405E-04
   0.520  0.399E-04  0.399E-04
   0.530  0.401E-04  0.401E-04
   0.540  0.413E-04  0.413E-04
   0.550  0.439E-04  0.439E-04
   0.560  0.485E-04  0.485E-04
   0.570  0.554E-04  0.554E-04
   0.580  0.648E-04  0.648E-04
   0.590  0.765E-04  0.765E-04
   0.600  0.899E-04  0.899E-04
   0.610  0.104E-03  0.104E-03
   0.620  0.118E-03  0.118E-03
   0.630  0.129E-03  0.129E-03
   0.640  0.137E-03  0.137E-03
   0.650  0.141E-03  0.141E-03
   0.660  0.142E-03  0.142E-03
   0.670  0.140E-03  0.140E-03
   0.680  0.137E-03  0.137E-03
   0.690  0.137E-03  0.137E-03
   0.700  0.142E-03  0.142E-03
   0.710  0.152E-03  0.152E-03
   0.720  0.171E-03  0.171E-03
   0.730  0.198E-03  0.198E-03
   0.740  0.232E-03  0.232E-03
   0.750  0.272E-03  0.272E-03
   0.760  0.317E-03  0.317E-03
   0.770  0.364E-03  0.364E-03
   0.780  0.413E-03  0.413E-03
   0.790  0.462E-03  0.462E-03
   0.800  0.509E-03  0.509E-03
   0.810  0.551E-03  0.551E-03
   0.820  0.586E-03  0.586E-03
   0.830  0.611E-03  0.611E-03
   0.840  0.624E-03  0.624E-03
   0.850  0.624E-03  0.624E-03
   0.860  0.610E-03  0.610E-03
   0.870  0.585E-03  0.585E-03
   0.880  0.550E-03  0.550E-03
   0.890  0.510E-03  0.510E-03
   0.900  0.469E-03  0.469E-03
   0.910  0.429E-03  0.429E-03
   0.920  0.394E-03  0.394E-03
   0.930  0.364E-03  0.364E-03
   0.940  0.340E-03  0.340E-03
   0.950  0.321E-03  0.321E-03
   0.960  0.307E-03  0.307E-03
   0.970  0.298E-03  0.298E-03
   0.980  0.291E-03  0.291E-03
   0.990  0.287E-03  0.287E-03
   1.000  0.283E-03  0.283E-03
   1.010  0.280E-03  0.280E-03
   1.020  0.276E-03  0.276E-03
   1.030  0.270E-03  0.270E-03
   1.040  0.264E-03  0.264E-03
   1.050  0.258E-03  0.258E-03
   1.060  0.253E-03  0.253E-03
   1.070  0.250E-03  0.250E-03
   1.080  0.250E-03  0.250E-03
   1.090  0.252E-03  0.252E-03
   1.100  0.254E-03  0.254E-03
   1.110  0.254E-03  0.254E-03
   1.120  0.251E-03  0.251E-03
   1.130  0.244E-03  0.244E-03
   1.140  0.234E-03  0.234E-03
   1.150  0.224E-03  0.224E-03
   1.160  0.214E-03  0.214E-03
   1.170  0.208E-03  0.208E-03
   1.180  0.207E-03  0.207E-03
   1.190  0.210E-03  0.210E-03
   1.200  0.216E-03  0.216E-03
   1.210  0.223E-03  0.223E-03
   1.220  0.229E-03  0.229E-03
   1.230  0.230E-03  0.230E-03
   1.240  0.226E-03  0.226E-03
   1.250  0.218E-03  0.218E-03
   1.260  0.205E-03  0.205E-03
   1.270  0.191E-03  0.191E-03
   1.280  0.178E-03  0.178E-03
   1.290  0.168E-03  0.168E-03
   1.300  0.164E-03  0.164E-03
   1.310  0.167E-03  0.167E-03
   1.320  0.176E-03  0.176E-03
   1.330  0.189E-03  0.189E-03
   1.340  0.203E-03  0.203E-03
   1.350  0.215E-03  0.215E-03
   1.360  0.223E-03  0.223E-03
   1.370  0.223E-03  0.223E-03
   1.380  0.216E-03  0.216E-03
   1.390  0.202E-03  0.202E-03
   1.400  0.183E-03  0.183E-03
   1.410  0.163E-03  0.163E-03
   1.420  0.147E-03  0.147E-03
   1.430  0.136E-03  0.136E-03
   1.440  0.134E-03  0.134E-03
   1.450  0.140E-03  0.140E-03
   1.460  0.153E-03  0.153E-03
   1.470  0.171E-03  0.171E-03
   1.480  0.189E-03  0.189E-03
   1.490  0.205E-03  0.205E-03
   1.500  0.215E-03  0.215E-03
   1.510  0.217E-03  0.217E-03
   1.520  0.211E-03  0.211E-03
   1.530  0.198E-03  0.198E-03
   1.540  0.179E-03  0.179E-03
   1.550  0.158E-03  0.158E-03
   1.560  0.138E-03  0.138E-03
   1.570  0.122E-03  0.122E-03
   1.580  0.113E-03  0.113E-03
   1.590  0.111E-03  0.111E-03
   1.600  0.116E-03  0.116E-03
   1.610  0.127E-03  0.127E-03
   1.620  0.143E-03  0.143E-03
   1.630  0.161E-03  0.161E-03
   1.640  0.179E-03  0.179E-03
   1.650  0.195E-03  0.195E-03
   1.660  0.206E-03  0.206E-03
   1.670  0.210E-03  0.210E-03
   1.680  0.206E-03  0.206E-03
   1.690  0.195E-03  0.195E-03
   1.700  0.177E-03  0.177E-03
   1.710  0.156E-03  0.156E-03
   1.720  0.133E-03  0.133E-03
   1.730  0.112E-03  0.112E-03
   1.740  0.976E-04  0.976E-04
   1.750  0.906E-04  0.906E-04
   1.760  0.922E-04  0.922E-04
   1.770  0.102E-03  0.102E-03
   1.780  0.119E-03  0.119E-03
   1.790  0.140E-03  0.140E-03
   1.800  0.162E-03  0.162E-03
   1.810  0.183E-03  0.183E-03
   1.820  0.199E-03  0.199E-03
   1.830  0.207E-03  0.207E-03
   1.840  0.208E-03  0.208E-03
   1.850  0.199E-03  0.199E-03
   1.860  0.183E-03  0.183E-03
   1.870  0.162E-03  0.162E-03
   1.880  0.139E-03  0.139E-03
   1.890  0.116E-03  0.116E-03
   1.900  0.977E-04  0.977E-04
   1.910  0.853E-04  0.853E-04
   1.920  0.799E-04  0.799E-04
   1.930  0.816E-04  0.816E-04
   1.940  0.895E-04  0.895E-04
   1.950  0.102E-03  0.102E-03
   1.960  0.119E-03  0.119E-03
   1.970  0.138E-03  0.138E-03
   1.980  0.156E-03  0.156E-03
   1.990  0.174E-03  0.174E-03
   2.000  0.189E-03  0.189E-03
   2.010  0.198E-03  0.198E-03
   2.020  0.201E-03  0.201E-03
   2.030  0.197E-03  0.197E-03
   2.040  0.185E-03  0.185E-03
   2.050  0.166E-03  0.166E-03
   2.060  0.143E-03  0.143E-03
   2.070  0.119E-03  0.119E-03
   2.080  0.971E-04  0.971E-04
   2.090  0.794E-04  0.794E-04
   2.100  0.685E-04  0.685E-04
   2.110  0.657E-04  0.657E-04
   2.120  0.710E-04  0.710E-04
   2.130  0.835E-04  0.835E-04
   2.140  0.102E-03  0.102E-03
   2.150  0.124E-03  0.124E-03
   2.160  0.147E-03  0.147E-03
   2.170  0.171E-03  0.171E-03
   2.180  0.194E-03  0.194E-03
   2.190  0.217E-03  0.217E-03
   2.200  0.243E-03  0.243E-03
   2.210  0.280E-03  0.280E-03
   2.220  0.339E-03  0.339E-03
   2.230  0.439E-03  0.439E-03
   2.240  0.604E-03  0.604E-03
   2.250  0.864E-03  0.864E-03
   2.260  0.125E-02  0.125E-02
   2.270  0.180E-02  0.180E-02
   2.280  0.253E-02  0.253E-02
   2.290  0.345E-02  0.345E-02
   2.300  0.456E-02  0.456E-02
   2.310  0.581E-02  0.581E-02
   2.320  0.715E-02  0.715E-02
   2.330  0.851E-02  0.851E-02
   2.340  0.981E-02  0.981E-02
   2.350  0.110E-01  0.110E-01
   2.360  0.119E-01  0.119E-01
   2.370  0.127E-01  0.127E-01
   2.380  0.131E-01  0.131E-01
   2.390  0.134E-01  0.134E-01
   2.400  0.135E-01  0.135E-01
   2.410  0.134E-01  0.134E-01
   2.420  0.133E-01  0.133E-01
   2.430  0.131E-01  0.131E-01
   2.440  0.130E-01  0.130E-01
   2.450  0.128E-01  0.128E-01
   2.460  0.127E-01  0.127E-01
   2.470  0.126E-01  0.126E-01
   2.480  0.126E-01  0.126E-01
   2.490  0.125E-01  0.125E-01
   2.500  0.125E-01  0.125E-01
   2.510  0.125E-01  0.125E-01
   2.520  0.125E-01  0.125E-01
   2.530  0.126E-01  0.126E-01
   2.540  0.126E-01  0.126E-01
   2.550  0.126E-01  0.126E-01
   2.560  0.127E-01  0.127E-01
   2.570  0.127E-01  0.127E-01
   2.580  0.128E-01  0.128E-01
   2.590  0.127E-01  0.127E-01
   2.600  0.127E-01  0.127E-01
   2.610  0.127E-01  0.127E-01
   2.620  0.127E-01  0.127E-01
   2.630  0.127E-01  0.127E-01
   2.640  0.128E-01  0.128E-01
   2.650  0.128E-01  0.128E-01
   2.660  0.129E-01  0.129E-01
   2.670  0.129E-01  0.129E-01
   2.680  0.128E-01  0.128E-01
   2.690  0.127E-01  0.127E-01
   2.700  0.126E-01  0.126E-01
   2.710  0.126E-01  0.126E-01
   2.720  0.126E-01  0.126E-01
   2.730  0.129E-01  0.129E-01
   2.740  0.132E-01  0.132E-01
   2.750  0.136E-01  0.136E-01
   2.760  0.141E-01  0.141E-01
   2.770  0.145E-01  0.145E-01
   2.780  0.147E-01  0.147E-01
   2.790  0.149E-01  0.149E-01
   2.800  0.149E-01  0.149E-01
   2.810  0.150E-01  0.150E-01
   2.820  0.151E-01  0.151E-01
   2.830  0.154E-01  0.154E-01
   2.840  0.158E-01  0.158E-01
   2.850  0.162E-01  0.162E-01
   2.860  0.167E-01  0.167E-01
   2.870  0.171E-01  0.171E-01
   2.880  0.173E-01  0.173E-01
   2.890  0.173E-01  0.173E-01
   2.900  0.170E-01  0.170E-01
   2.910  0.165E-01  0.165E-01
   2.920  0.160E-01  0.160E-01
   2.930  0.155E-01  0.155E-01
   2.940  0.153E-01  0.153E-01
   2.950  0.153E-01  0.153E-01
   2.960  0.156E-01  0.156E-01
   2.970  0.161E-01  0.161E-01
   2.980  0.167E-01  0.167E-01
   2.990  0.173E-01  0.173E-01
   3.000  0.177E-01  0.177E-01
   3.010  0.179E-01  0.179E-01
   3.020  0.178E-01  0.178E-01
   3.030  0.173E-01  0.173E-01
   3.040  0.167E-01  0.167E-01
   3.050  0.160E-01  0.160E-01
   3.060  0.154E-01  0.154E-01
   3.070  0.149E-01  0.149E-01
   3.080  0.148E-01  0.148E-01
   3.090  0.151E-01  0.151E-01
   3.100  0.156E-01  0.156E-01
   3.110  0.164E-01  0.164E-01
   3.120  0.172E-01  0.172E-01
   3.130  0.180E-01  0.180E-01
   3.140  0.184E-01  0.184E-01
   3.150  0.185E-01  0.185E-01
   3.160  0.183E-01  0.183E-01
   3.170  0.177E-01  0.177E-01
   3.180  0.169E-01  0.169E-01
   3.190  0.161E-01  0.161E-01
   3.200  0.154E-01  0.154E-01
   3.210  0.149E-01  0.149E-01
   3.220  0.147E-01  0.147E-01
   3.230  0.148E-01  0.148E-01
   3.240  0.152E-01  0.152E-01
   3.250  0.159E-01  0.159E-01
   3.260  0.167E-01  0.167E-01
   3.270  0.175E-01  0.175E-01
   3.280  0.183E-01  0.183E-01
   3.290  0.189E-01  0.189E-01
   3.300  0.192E-01  0.192E-01
   3.310  0.190E-01  0.190E-01
   3.320  0.185E-01  0.185E-01
   3.330  0.177E-01  0.177E-01
   3.340  0.167E-01  0.167E-01
   3.350  0.157E-01  0.157E-01
   3.360  0.148E-01  0.148E-01
   3.370  0.142E-01  0.142E-01
   3.380  0.140E-01  0.140E-01
   3.390  0.142E-01  0.142E-01
   3.400  0.148E-01  0.148E-01
   3.410  0.157E-01  0.157E-01
   3.420  0.168E-01  0.168E-01
   3.430  0.180E-01  0.180E-01
   3.440  0.190E-01  0.190E-01
   3.450  0.197E-01  0.197E-01
   3.460  0.201E-01  0.201E-01
   3.470  0.200E-01  0.200E-01
   3.480  0.195E-01  0.195E-01
   3.490  0.186E-01  0.186E-01
   3.500  0.174E-01  0.174E-01
   3.510  0.161E-01  0.161E-01
   3.520  0.149E-01  0.149E-01
   3.530  0.140E-01  0.140E-01
   3.540  0.134E-01  0.134E-01
   3.550  0.134E-01  0.134E-01
   3.560  0.138E-01  0.138E-01
   3.570  0.147E-01  0.147E-01
   3.580  0.159E-01  0.159E-01
   3.590  0.171E-01  0.171E-01
   3.600  0.184E-01  0.184E-01
   3.610  0.194E-01  0.194E-01
   3.620  0.200E-01  0.200E-01
   3.630  0.202E-01  0.202E-01
   3.640  0.200E-01  0.200E-01
   3.650  0.195E-01  0.195E-01
   3.660  0.187E-01  0.187E-01
   3.670  0.178E-01  0.178E-01
   3.680  0.169E-01  0.169E-01
   3.690  0.161E-01  0.161E-01
   3.700  0.154E-01  0.154E-01
   3.710  0.148E-01  0.148E-01
   3.720  0.144E-01  0.144E-01
   3.730  0.142E-01  0.142E-01
   3.740  0.143E-01  0.143E-01
   3.750  0.145E-01  0.145E-01
   3.760  0.151E-01  0.151E-01
   3.770  0.159E-01  0.159E-01
   3.780  0.169E-01  0.169E-01
   3.790  0.179E-01  0.179E-01
   3.800  0.189E-01  0.189E-01
   3.810  0.197E-01  0.197E-01
   3.820  0.202E-01  0.202E-01
   3.830  0.203E-01  0.203E-01
   3.840  0.200E-01  0.200E-01
   3.850  0.194E-01  0.194E-01
   3.860  0.186E-01  0.186E-01
   3.870  0.178E-01  0.178E-01
   3.880  0.170E-01  0.170E-01
   3.890  0.164E-01  0.164E-01
   3.900  0.160E-01  0.160E-01
   3.910  0.158E-01  0.158E-01
   3.920  0.157E-01  0.157E-01
   3.930  0.158E-01  0.158E-01
   3.940  0.159E-01  0.159E-01
   3.950  0.162E-01  0.162E-01
   3.960  0.168E-01  0.168E-01
   3.970  0.175E-01  0.175E-01
   3.980  0.185E-01  0.185E-01
   3.990  0.197E-01  0.197E-01
   4.000  0.210E-01  0.210E-01
   4.010  0.223E-01  0.223E-01
   4.020  0.233E-01  0.233E-01
   4.030  0.240E-01  0.240E-01
   4.040  0.242E-01  0.242E-01
   4.050  0.238E-01  0.238E-01
   4.060  0.229E-01  0.229E-01
   4.070  0.217E-01  0.217E-01
   4.080  0.202E-01  0.202E-01
   4.090  0.187E-01  0.187E-01
   4.100  0.173E-01  0.173E-01
   4.110  0.163E-01  0.163E-01
   4.120  0.156E-01  0.156E-01
   4.130  0.153E-01  0.153E-01
   4.140  0.154E-01  0.154E-01
   4.150  0.158E-01  0.158E-01
   4.160  0.164E-01  0.164E-01
   4.170  0.172E-01  0.172E-01
   4.180  0.182E-01  0.182E-01
   4.190  0.192E-01  0.192E-01
   4.200  0.204E-01  0.204E-01
   4.210  0.216E-01  0.216E-01
   4.220  0.226E-01  0.226E-01
   4.230  0.235E-01  0.235E-01
   4.240  0.240E-01  0.240E-01
   4.250  0.242E-01  0.242E-01
   4.260  0.239E-01  0.239E-01
   4.270  0.233E-01  0.233E-01
   4.280  0.222E-01  0.222E-01
   4.290  0.209E-01  0.209E-01
   4.300  0.195E-01  0.195E-01
   4.310  0.180E-01  0.180E-01
   4.320  0.167E-01  0.167E-01
   4.330  0.155E-01  0.155E-01
   4.340  0.147E-01  0.147E-01
   4.350  0.143E-01  0.143E-01
   4.360  0.144E-01  0.144E-01
   4.370  0.150E-01  0.150E-01
   4.380  0.159E-01  0.159E-01
   4.390  0.172E-01  0.172E-01
   4.400  0.186E-01  0.186E-01
   4.410  0.202E-01  0.202E-01
   4.420  0.216E-01  0.216E-01
   4.430  0.229E-01  0.229E-01
   4.440  0.238E-01  0.238E-01
   4.450  0.243E-01  0.243E-01
   4.460  0.244E-01  0.244E-01
   4.470  0.241E-01  0.241E-01
   4.480  0.234E-01  0.234E-01
   4.490  0.224E-01  0.224E-01
   4.500  0.213E-01  0.213E-01
   4.510  0.201E-01  0.201E-01
   4.520  0.191E-01  0.191E-01
   4.530  0.182E-01  0.182E-01
   4.540  0.176E-01  0.176E-01
   4.550  0.170E-01  0.170E-01
   4.560  0.165E-01  0.165E-01
   4.570  0.162E-01  0.162E-01
   4.580  0.159E-01  0.159E-01
   4.590  0.157E-01  0.157E-01
   4.600  0.158E-01  0.158E-01
   4.610  0.162E-01  0.162E-01
   4.620  0.169E-01  0.169E-01
   4.630  0.180E-01  0.180E-01
   4.640  0.193E-01  0.193E-01
   4.650  0.207E-01  0.207E-01
   4.660  0.222E-01  0.222E-01
   4.670  0.234E-01  0.234E-01
   4.680  0.242E-01  0.242E-01
   4.690  0.246E-01  0.246E-01
   4.700  0.246E-01  0.246E-01
   4.710  0.241E-01  0.241E-01
   4.720  0.232E-01  0.232E-01
   4.730  0.222E-01  0.222E-01
   4.740  0.211E-01  0.211E-01
   4.750  0.200E-01  0.200E-01
   4.760  0.191E-01  0.191E-01
   4.770  0.184E-01  0.184E-01
   4.780  0.180E-01  0.180E-01
   4.790  0.179E-01  0.179E-01
   4.800  0.179E-01  0.179E-01
   4.810  0.180E-01  0.180E-01
   4.820  0.181E-01  0.181E-01
   4.830  0.181E-01  0.181E-01
   4.840  0.182E-01  0.182E-01
   4.850  0.183E-01  0.183E-01
   4.860  0.185E-01  0.185E-01
   4.870  0.189E-01  0.189E-01
   4.880  0.196E-01  0.196E-01
   4.890  0.206E-01  0.206E-01
   4.900  0.217E-01  0.217E-01
   4.910  0.229E-01  0.229E-01
   4.920  0.240E-01  0.240E-01
   4.930  0.247E-01  0.247E-01
   4.940  0.249E-01  0.249E-01
   4.950  0.247E-01  0.247E-01
   4.960  0.241E-01  0.241E-01
   4.970  0.232E-01  0.232E-01
   4.980  0.222E-01  0.222E-01
   4.990  0.212E-01  0.212E-01
   5.000  0.204E-01  0.204E-01
   5.010  0.197E-01  0.197E-01
   5.020  0.192E-01  0.192E-01
   5.030  0.190E-01  0.190E-01
   5.040  0.189E-01  0.189E-01
   5.050  0.190E-01  0.190E-01
   5.060  0.192E-01  0.192E-01
   5.070  0.195E-01  0.195E-01
   5.080  0.199E-01  0.199E-01
   5.090  0.204E-01  0.204E-01
   5.100  0.210E-01  0.210E-01
   5.110  0.216E-01  0.216E-01
   5.120  0.223E-01  0.223E-01
   5.130  0.231E-01  0.231E-01
   5.140  0.241E-01  0.241E-01
   5.150  0.252E-01  0.252E-01
   5.160  0.263E-01  0.263E-01
   5.170  0.273E-01  0.273E-01
   5.180  0.280E-01  0.280E-01
   5.190  0.283E-01  0.283E-01
   5.200  0.280E-01  0.280E-01
   5.210  0.271E-01  0.271E-01
   5.220  0.258E-01  0.258E-01
   5.230  0.242E-01  0.242E-01
   5.240  0.225E-01  0.225E-01
   5.250  0.209E-01  0.209E-01
   5.260  0.196E-01  0.196E-01
   5.270  0.187E-01  0.187E-01
   5.280  0.182E-01  0.182E-01
   5.290  0.181E-01  0.181E-01
   5.300  0.183E-01  0.183E-01
   5.310  0.188E-01  0.188E-01
   5.320  0.194E-01  0.194E-01
   5.330  0.201E-01  0.201E-01
   5.340  0.208E-01  0.208E-01
   5.350  0.214E-01  0.214E-01
   5.360  0.219E-01  0.219E-01
   5.370  0.224E-01  0.224E-01
   5.380  0.229E-01  0.229E-01
   5.390  0.235E-01  0.235E-01
   5.400  0.242E-01  0.242E-01
   5.410  0.249E-01  0.249E-01
   5.420  0.258E-01  0.258E-01
   5.430  0.267E-01  0.267E-01
   5.440  0.276E-01  0.276E-01
   5.450  0.284E-01  0.284E-01
   5.460  0.289E-01  0.289E-01
   5.470  0.293E-01  0.293E-01
   5.480  0.294E-01  0.294E-01
   5.490  0.294E-01  0.294E-01
   5.500  0.293E-01  0.293E-01
   5.510  0.292E-01  0.292E-01
   5.520  0.292E-01  0.292E-01
   5.530  0.293E-01  0.293E-01
   5.540  0.294E-01  0.294E-01
   5.550  0.294E-01  0.294E-01
   5.560  0.294E-01  0.294E-01
   5.570  0.293E-01  0.293E-01
   5.580  0.289E-01  0.289E-01
   5.590  0.285E-01  0.285E-01
   5.600  0.279E-01  0.279E-01
   5.610  0.274E-01  0.274E-01
   5.620  0.269E-01  0.269E-01
   5.630  0.265E-01  0.265E-01
   5.640  0.263E-01  0.263E-01
   5.650  0.262E-01  0.262E-01
   5.660  0.261E-01  0.261E-01
   5.670  0.261E-01  0.261E-01
   5.680  0.262E-01  0.262E-01
   5.690  0.263E-01  0.263E-01
   5.700  0.266E-01  0.266E-01
   5.710  0.272E-01  0.272E-01
   5.720  0.280E-01  0.280E-01
   5.730  0.290E-01  0.290E-01
   5.740  0.302E-01  0.302E-01
   5.750  0.314E-01  0.314E-01
   5.760  0.323E-01  0.323E-01
   5.770  0.329E-01  0.329E-01
   5.780  0.331E-01  0.331E-01
   5.790  0.328E-01  0.328E-01
   5.800  0.322E-01  0.322E-01
   5.810  0.315E-01  0.315E-01
   5.820  0.309E-01  0.309E-01
   5.830  0.305E-01  0.305E-01
   5.840  0.305E-01  0.305E-01
   5.850  0.308E-01  0.308E-01
   5.860  0.312E-01  0.312E-01
   5.870  0.316E-01  0.316E-01
   5.880  0.318E-01  0.318E-01
   5.890  0.317E-01  0.317E-01
   5.900  0.312E-01  0.312E-01
   5.910  0.305E-01  0.305E-01
   5.920  0.296E-01  0.296E-01
   5.930  0.287E-01  0.287E-01
   5.940  0.279E-01  0.279E-01
   5.950  0.273E-01  0.273E-01
   5.960  0.269E-01  0.269E-01
   5.970  0.268E-01  0.268E-01
   5.980  0.269E-01  0.269E-01
   5.990  0.272E-01  0.272E-01
   6.000  0.277E-01  0.277E-01
   6.010  0.283E-01  0.283E-01
   6.020  0.292E-01  0.292E-01
   6.030  0.304E-01  0.304E-01
   6.040  0.318E-01  0.318E-01
   6.050  0.334E-01  0.334E-01
   6.060  0.352E-01  0.352E-01
   6.070  0.370E-01  0.370E-01
   6.080  0.387E-01  0.387E-01
   6.090  0.404E-01  0.404E-01
   6.100  0.419E-01  0.419E-01
   6.110  0.433E-01  0.433E-01
   6.120  0.447E-01  0.447E-01
   6.130  0.463E-01  0.463E-01
   6.140  0.481E-01  0.481E-01
   6.150  0.502E-01  0.502E-01
   6.160  0.525E-01  0.525E-01
   6.170  0.548E-01  0.548E-01
   6.180  0.572E-01  0.572E-01
   6.190  0.594E-01  0.594E-01
   6.200  0.614E-01  0.614E-01
   6.210  0.629E-01  0.629E-01
   6.220  0.640E-01  0.640E-01
   6.230  0.646E-01  0.646E-01
   6.240  0.646E-01  0.646E-01
   6.250  0.639E-01  0.639E-01
   6.260  0.626E-01  0.626E-01
   6.270  0.607E-01  0.607E-01
   6.280  0.582E-01  0.582E-01
   6.290  0.554E-01  0.554E-01
   6.300  0.524E-01  0.524E-01
   6.310  0.495E-01  0.495E-01
   6.320  0.471E-01  0.471E-01
   6.330  0.452E-01  0.452E-01
   6.340  0.440E-01  0.440E-01
   6.350  0.437E-01  0.437E-01
   6.360  0.441E-01  0.441E-01
   6.370  0.451E-01  0.451E-01
   6.380  0.464E-01  0.464E-01
   6.390  0.478E-01  0.478E-01
   6.400  0.490E-01  0.490E-01
   6.410  0.499E-01  0.499E-01
   6.420  0.503E-01  0.503E-01
   6.430  0.503E-01  0.503E-01
   6.440  0.500E-01  0.500E-01
   6.450  0.494E-01  0.494E-01
   6.460  0.487E-01  0.487E-01
   6.470  0.478E-01  0.478E-01
   6.480  0.469E-01  0.469E-01
   6.490  0.459E-01  0.459E-01
   6.500  0.449E-01  0.449E-01
   6.510  0.438E-01  0.438E-01
   6.520  0.427E-01  0.427E-01
   6.530  0.416E-01  0.416E-01
   6.540  0.406E-01  0.406E-01
   6.550  0.395E-01  0.395E-01
   6.560  0.383E-01  0.383E-01
   6.570  0.368E-01  0.368E-01
   6.580  0.351E-01  0.351E-01
   6.590  0.331E-01  0.331E-01
   6.600  0.308E-01  0.308E-01
   6.610  0.284E-01  0.284E-01
   6.620  0.263E-01  0.263E-01
   6.630  0.245E-01  0.245E-01
   6.640  0.232E-01  0.232E-01
   6.650  0.227E-01  0.227E-01
   6.660  0.229E-01  0.229E-01
   6.670  0.237E-01  0.237E-01
   6.680  0.250E-01  0.250E-01
   6.690  0.265E-01  0.265E-01
   6.700  0.282E-01  0.282E-01
   6.710  0.298E-01  0.298E-01
   6.720  0.312E-01  0.312E-01
   6.730  0.323E-01  0.323E-01
   6.740  0.330E-01  0.330E-01
   6.750  0.335E-01  0.335E-01
   6.760  0.337E-01  0.337E-01
   6.770  0.337E-01  0.337E-01
   6.780  0.337E-01  0.337E-01
   6.790  0.335E-01  0.335E-01
   6.800  0.331E-01  0.331E-01
   6.810  0.326E-01  0.326E-01
   6.820  0.318E-01  0.318E-01
   6.830  0.308E-01  0.308E-01
   6.840  0.297E-01  0.297E-01
   6.850  0.286E-01  0.286E-01
   6.860  0.276E-01  0.276E-01
   6.870  0.270E-01  0.270E-01
   6.880  0.267E-01  0.267E-01
   6.890  0.269E-01  0.269E-01
   6.900  0.274E-01  0.274E-01
   6.910  0.281E-01  0.281E-01
   6.920  0.290E-01  0.290E-01
   6.930  0.299E-01  0.299E-01
   6.940  0.309E-01  0.309E-01
   6.950  0.321E-01  0.321E-01
   6.960  0.333E-01  0.333E-01
   6.970  0.348E-01  0.348E-01
   6.980  0.365E-01  0.365E-01
   6.990  0.384E-01  0.384E-01
   7.000  0.402E-01  0.402E-01
   7.010  0.418E-01  0.418E-01
   7.020  0.430E-01  0.430E-01
   7.030  0.436E-01  0.436E-01
   7.040  0.435E-01  0.435E-01
   7.050  0.427E-01  0.427E-01
   7.060  0.413E-01  0.413E-01
   7.070  0.394E-01  0.394E-01
   7.080  0.373E-01  0.373E-01
   7.090  0.351E-01  0.351E-01
   7.100  0.331E-01  0.331E-01
   7.110  0.315E-01  0.315E-01
   7.120  0.304E-01  0.304E-01
   7.130  0.300E-01  0.300E-01
   7.140  0.303E-01  0.303E-01
   7.150  0.312E-01  0.312E-01
   7.160  0.327E-01  0.327E-01
   7.170  0.346E-01  0.346E-01
   7.180  0.366E-01  0.366E-01
   7.190  0.385E-01  0.385E-01
   7.200  0.400E-01  0.400E-01
   7.210  0.412E-01  0.412E-01
   7.220  0.420E-01  0.420E-01
   7.230  0.425E-01  0.425E-01
   7.240  0.428E-01  0.428E-01
   7.250  0.432E-01  0.432E-01
   7.260  0.436E-01  0.436E-01
   7.270  0.441E-01  0.441E-01
   7.280  0.444E-01  0.444E-01
   7.290  0.445E-01  0.445E-01
   7.300  0.442E-01  0.442E-01
   7.310  0.435E-01  0.435E-01
   7.320  0.425E-01  0.425E-01
   7.330  0.412E-01  0.412E-01
   7.340  0.401E-01  0.401E-01
   7.350  0.393E-01  0.393E-01
   7.360  0.390E-01  0.390E-01
   7.370  0.391E-01  0.391E-01
   7.380  0.397E-01  0.397E-01
   7.390  0.407E-01  0.407E-01
   7.400  0.418E-01  0.418E-01
   7.410  0.431E-01  0.431E-01
   7.420  0.444E-01  0.444E-01
   7.430  0.456E-01  0.456E-01
   7.440  0.467E-01  0.467E-01
   7.450  0.477E-01  0.477E-01
   7.460  0.486E-01  0.486E-01
   7.470  0.494E-01  0.494E-01
   7.480  0.504E-01  0.504E-01
   7.490  0.515E-01  0.515E-01
   7.500  0.528E-01  0.528E-01
   7.510  0.542E-01  0.542E-01
   7.520  0.558E-01  0.558E-01
   7.530  0.573E-01  0.573E-01
   7.540  0.587E-01  0.587E-01
   7.550  0.598E-01  0.598E-01
   7.560  0.604E-01  0.604E-01
   7.570  0.607E-01  0.607E-01
   7.580  0.605E-01  0.605E-01
   7.590  0.598E-01  0.598E-01
   7.600  0.588E-01  0.588E-01
   7.610  0.574E-01  0.574E-01
   7.620  0.557E-01  0.557E-01
   7.630  0.540E-01  0.540E-01
   7.640  0.525E-01  0.525E-01
   7.650  0.516E-01  0.516E-01
   7.660  0.518E-01  0.518E-01
   7.670  0.536E-01  0.536E-01
   7.680  0.575E-01  0.575E-01
   7.690  0.638E-01  0.638E-01
   7.700  0.724E-01  0.724E-01
   7.710  0.832E-01  0.832E-01
   7.720  0.952E-01  0.952E-01
   7.730  0.108E+00  0.108E+00
   7.740  0.119E+00  0.119E+00
   7.750  0.129E+00  0.129E+00
   7.760  0.136E+00  0.136E+00
   7.770  0.140E+00  0.140E+00
   7.780  0.140E+00  0.140E+00
   7.790  0.138E+00  0.138E+00
   7.800  0.134E+00  0.134E+00
   7.810  0.129E+00  0.129E+00
   7.820  0.124E+00  0.124E+00
   7.830  0.118E+00  0.118E+00
   7.840  0.113E+00  0.113E+00
   7.850  0.109E+00  0.109E+00
   7.860  0.106E+00  0.106E+00
   7.870  0.103E+00  0.103E+00
   7.880  0.101E+00  0.101E+00
   7.890  0.987E-01  0.987E-01
   7.900  0.969E-01  0.969E-01
   7.910  0.953E-01  0.953E-01
   7.920  0.937E-01  0.937E-01
   7.930  0.925E-01  0.925E-01
   7.940  0.918E-01  0.918E-01
   7.950  0.917E-01  0.917E-01
   7.960  0.924E-01  0.924E-01
   7.970  0.938E-01  0.938E-01
   7.980  0.953E-01  0.953E-01
   7.990  0.966E-01  0.966E-01
   8.000  0.970E-01  0.970E-01
   8.010  0.962E-01  0.962E-01
   8.020  0.940E-01  0.940E-01
   8.030  0.905E-01  0.905E-01
   8.040  0.861E-01  0.861E-01
   8.050  0.815E-01  0.815E-01
   8.060  0.771E-01  0.771E-01
   8.070  0.738E-01  0.738E-01
   8.080  0.719E-01  0.719E-01
   8.090  0.716E-01  0.716E-01
   8.100  0.728E-01  0.728E-01
   8.110  0.752E-01  0.752E-01
   8.120  0.783E-01  0.783E-01
   8.130  0.815E-01  0.815E-01
   8.140  0.842E-01  0.842E-01
   8.150  0.861E-01  0.861E-01
   8.160  0.868E-01  0.868E-01
   8.170  0.863E-01  0.863E-01
   8.180  0.849E-01  0.849E-01
   8.190  0.829E-01  0.829E-01
   8.200  0.807E-01  0.807E-01
   8.210  0.789E-01  0.789E-01
   8.220  0.778E-01  0.778E-01
   8.230  0.776E-01  0.776E-01
   8.240  0.785E-01  0.785E-01
   8.250  0.803E-01  0.803E-01
   8.260  0.828E-01  0.828E-01
   8.270  0.857E-01  0.857E-01
   8.280  0.886E-01  0.886E-01
   8.290  0.912E-01  0.912E-01
   8.300  0.929E-01  0.929E-01
   8.310  0.935E-01  0.935E-01
   8.320  0.929E-01  0.929E-01
   8.330  0.911E-01  0.911E-01
   8.340  0.883E-01  0.883E-01
   8.350  0.849E-01  0.849E-01
   8.360  0.816E-01  0.816E-01
   8.370  0.789E-01  0.789E-01
   8.380  0.772E-01  0.772E-01
   8.390  0.767E-01  0.767E-01
   8.400  0.773E-01  0.773E-01
   8.410  0.785E-01  0.785E-01
   8.420  0.799E-01  0.799E-01
   8.430  0.809E-01  0.809E-01
   8.440  0.813E-01  0.813E-01
   8.450  0.810E-01  0.810E-01
   8.460  0.803E-01  0.803E-01
   8.470  0.798E-01  0.798E-01
   8.480  0.801E-01  0.801E-01
   8.490  0.816E-01  0.816E-01
   8.500  0.846E-01  0.846E-01
   8.510  0.891E-01  0.891E-01
   8.520  0.944E-01  0.944E-01
   8.530  0.100E+00  0.100E+00
   8.540  0.105E+00  0.105E+00
   8.550  0.109E+00  0.109E+00
   8.560  0.111E+00  0.111E+00
   8.570  0.111E+00  0.111E+00
   8.580  0.109E+00  0.109E+00
   8.590  0.105E+00  0.105E+00
   8.600  0.101E+00  0.101E+00
   8.610  0.948E-01  0.948E-01
   8.620  0.885E-01  0.885E-01
   8.630  0.822E-01  0.822E-01
   8.640  0.761E-01  0.761E-01
   8.650  0.707E-01  0.707E-01
   8.660  0.662E-01  0.662E-01
   8.670  0.630E-01  0.630E-01
   8.680  0.614E-01  0.614E-01
   8.690  0.616E-01  0.616E-01
   8.700  0.639E-01  0.639E-01
   8.710  0.682E-01  0.682E-01
   8.720  0.745E-01  0.745E-01
   8.730  0.826E-01  0.826E-01
   8.740  0.918E-01  0.918E-01
   8.750  0.101E+00  0.101E+00
   8.760  0.110E+00  0.110E+00
   8.770  0.118E+00  0.118E+00
   8.780  0.123E+00  0.123E+00
   8.790  0.125E+00  0.125E+00
   8.800  0.124E+00  0.124E+00
   8.810  0.121E+00  0.121E+00
   8.820  0.116E+00  0.116E+00
   8.830  0.111E+00  0.111E+00
   8.840  0.105E+00  0.105E+00
   8.850  0.100E+00  0.100E+00
   8.860  0.959E-01  0.959E-01
   8.870  0.926E-01  0.926E-01
   8.880  0.902E-01  0.902E-01
   8.890  0.885E-01  0.885E-01
   8.900  0.875E-01  0.875E-01
   8.910  0.877E-01  0.877E-01
   8.920  0.891E-01  0.891E-01
   8.930  0.922E-01  0.922E-01
   8.940  0.970E-01  0.970E-01
   8.950  0.103E+00  0.103E+00
   8.960  0.111E+00  0.111E+00
   8.970  0.118E+00  0.118E+00
   8.980  0.125E+00  0.125E+00
   8.990  0.131E+00  0.131E+00
   9.000  0.135E+00  0.135E+00
   9.010  0.136E+00  0.136E+00
   9.020  0.135E+00  0.135E+00
   9.030  0.131E+00  0.131E+00
   9.040  0.125E+00  0.125E+00
   9.050  0.118E+00  0.118E+00
   9.060  0.111E+00  0.111E+00
   9.070  0.103E+00  0.103E+00
   9.080  0.967E-01  0.967E-01
   9.090  0.916E-01  0.916E-01
   9.100  0.883E-01  0.883E-01
   9.110  0.869E-01  0.869E-01
   9.120  0.873E-01  0.873E-01
   9.130  0.890E-01  0.890E-01
   9.140  0.915E-01  0.915E-01
   9.150  0.942E-01  0.942E-01
   9.160  0.965E-01  0.965E-01
   9.170  0.982E-01  0.982E-01
   9.180  0.990E-01  0.990E-01
   9.190  0.992E-01  0.992E-01
   9.200  0.991E-01  0.991E-01
   9.210  0.993E-01  0.993E-01
   9.220  0.999E-01  0.999E-01
   9.230  0.101E+00  0.101E+00
   9.240  0.103E+00  0.103E+00
   9.250  0.104E+00  0.104E+00
   9.260  0.105E+00  0.105E+00
   9.270  0.104E+00  0.104E+00
   9.280  0.103E+00  0.103E+00
   9.290  0.999E-01  0.999E-01
   9.300  0.959E-01  0.959E-01
   9.310  0.914E-01  0.914E-01
   9.320  0.870E-01  0.870E-01
   9.330  0.831E-01  0.831E-01
   9.340  0.803E-01  0.803E-01
   9.350  0.790E-01  0.790E-01
   9.360  0.792E-01  0.792E-01
   9.370  0.810E-01  0.810E-01
   9.380  0.845E-01  0.845E-01
   9.390  0.895E-01  0.895E-01
   9.400  0.957E-01  0.957E-01
   9.410  0.103E+00  0.103E+00
   9.420  0.111E+00  0.111E+00
   9.430  0.119E+00  0.119E+00
   9.440  0.127E+00  0.127E+00
   9.450  0.134E+00  0.134E+00
   9.460  0.141E+00  0.141E+00
   9.470  0.148E+00  0.148E+00
   9.480  0.154E+00  0.154E+00
   9.490  0.160E+00  0.160E+00
   9.500  0.165E+00  0.165E+00
   9.510  0.170E+00  0.170E+00
   9.520  0.174E+00  0.174E+00
   9.530  0.177E+00  0.177E+00
   9.540  0.179E+00  0.179E+00
   9.550  0.181E+00  0.181E+00
   9.560  0.182E+00  0.182E+00
   9.570  0.182E+00  0.182E+00
   9.580  0.181E+00  0.181E+00
   9.590  0.179E+00  0.179E+00
   9.600  0.175E+00  0.175E+00
   9.610  0.170E+00  0.170E+00
   9.620  0.164E+00  0.164E+00
   9.630  0.155E+00  0.155E+00
   9.640  0.146E+00  0.146E+00
   9.650  0.136E+00  0.136E+00
   9.660  0.126E+00  0.126E+00
   9.670  0.117E+00  0.117E+00
   9.680  0.109E+00  0.109E+00
   9.690  0.104E+00  0.104E+00
   9.700  0.999E-01  0.999E-01
   9.710  0.977E-01  0.977E-01
   9.720  0.968E-01  0.968E-01
   9.730  0.968E-01  0.968E-01
   9.740  0.974E-01  0.974E-01
   9.750  0.982E-01  0.982E-01
   9.760  0.990E-01  0.990E-01
   9.770  0.996E-01  0.996E-01
   9.780  0.100E+00  0.100E+00
   9.790  0.999E-01  0.999E-01
   9.800  0.996E-01  0.996E-01
   9.810  0.990E-01  0.990E-01
   9.820  0.981E-01  0.981E-01
   9.830  0.973E-01  0.973E-01
   9.840  0.966E-01  0.966E-01
   9.850  0.963E-01  0.963E-01
   9.860  0.966E-01  0.966E-01
   9.870  0.976E-01  0.976E-01
   9.880  0.991E-01  0.991E-01
   9.890  0.101E+00  0.101E+00
   9.900  0.103E+00  0.103E+00
   9.910  0.104E+00  0.104E+00
   9.920  0.104E+00  0.104E+00
   9.930  0.103E+00  0.103E+00
   9.940  0.999E-01  0.999E-01
   9.950  0.954E-01  0.954E-01
   9.960  0.897E-01  0.897E-01
   9.970  0.836E-01  0.836E-01
   9.980  0.777E-01  0.777E-01
   9.990  0.727E-01  0.727E-01
  10.000  0.690E-01  0.690E-01
  10.010  0.667E-01  0.667E-01
  10.020  0.660E-01  0.660E-01
  10.030  0.664E-01  0.664E-01
  10.040  0.677E-01  0.677E-01
  10.050  0.694E-01  0.694E-01
  10.060  0.710E-01  0.710E-01
  10.070  0.721E-01  0.721E-01
  10.080  0.728E-01  0.728E-01
  10.090  0.728E-01  0.728E-01
  10.100  0.725E-01  0.725E-01
  10.110  0.719E-01  0.719E-01
  10.120  0.716E-01  0.716E-01
  10.130  0.716E-01  0.716E-01
  10.140  0.720E-01  0.720E-01
  10.150  0.729E-01  0.729E-01
  10.160  0.738E-01  0.738E-01
  10.170  0.747E-01  0.747E-01
  10.180  0.750E-01  0.750E-01
  10.190  0.747E-01  0.747E-01
  10.200  0.735E-01  0.735E-01
  10.210  0.716E-01  0.716E-01
  10.220  0.692E-01  0.692E-01
  10.230  0.666E-01  0.666E-01
  10.240  0.640E-01  0.640E-01
  10.250  0.616E-01  0.616E-01
  10.260  0.597E-01  0.597E-01
  10.270  0.581E-01  0.581E-01
  10.280  0.570E-01  0.570E-01
  10.290  0.562E-01  0.562E-01
  10.300  0.556E-01  0.556E-01
  10.310  0.553E-01  0.553E-01
  10.320  0.549E-01  0.549E-01
  10.330  0.546E-01  0.546E-01
  10.340  0.542E-01  0.542E-01
  10.350  0.537E-01  0.537E-01
  10.360  0.532E-01  0.532E-01
  10.370  0.528E-01  0.528E-01
  10.380  0.525E-01  0.525E-01
  10.390  0.527E-01  0.527E-01
  10.400  0.532E-01  0.532E-01
  10.410  0.543E-01  0.543E-01
  10.420  0.557E-01  0.557E-01
  10.430  0.574E-01  0.574E-01
  10.440  0.591E-01  0.591E-01
  10.450  0.606E-01  0.606E-01
  10.460  0.617E-01  0.617E-01
  10.470  0.621E-01  0.621E-01
  10.480  0.619E-01  0.619E-01
  10.490  0.609E-01  0.609E-01
  10.500  0.594E-01  0.594E-01
  10.510  0.573E-01  0.573E-01
  10.520  0.548E-01  0.548E-01
  10.530  0.520E-01  0.520E-01
  10.540  0.490E-01  0.490E-01
  10.550  0.461E-01  0.461E-01
  10.560  0.435E-01  0.435E-01
  10.570  0.413E-01  0.413E-01
  10.580  0.398E-01  0.398E-01
  10.590  0.390E-01  0.390E-01
  10.600  0.390E-01  0.390E-01
  10.610  0.397E-01  0.397E-01
  10.620  0.409E-01  0.409E-01
  10.630  0.423E-01  0.423E-01
  10.640  0.435E-01  0.435E-01
  10.650  0.443E-01  0.443E-01
  10.660  0.445E-01  0.445E-01
  10.670  0.441E-01  0.441E-01
  10.680  0.431E-01  0.431E-01
  10.690  0.417E-01  0.417E-01
  10.700  0.404E-01  0.404E-01
  10.710  0.394E-01  0.394E-01
  10.720  0.389E-01  0.389E-01
  10.730  0.390E-01  0.390E-01
  10.740  0.400E-01  0.400E-01
  10.750  0.418E-01  0.418E-01
  10.760  0.442E-01  0.442E-01
  10.770  0.473E-01  0.473E-01
  10.780  0.507E-01  0.507E-01
  10.790  0.542E-01  0.542E-01
  10.800  0.575E-01  0.575E-01
  10.810  0.603E-01  0.603E-01
  10.820  0.622E-01  0.622E-01
  10.830  0.630E-01  0.630E-01
  10.840  0.625E-01  0.625E-01
  10.850  0.609E-01  0.609E-01
  10.860  0.583E-01  0.583E-01
  10.870  0.551E-01  0.551E-01
  10.880  0.517E-01  0.517E-01
  10.890  0.485E-01  0.485E-01
  10.900  0.458E-01  0.458E-01
  10.910  0.438E-01  0.438E-01
  10.920  0.427E-01  0.427E-01
  10.930  0.423E-01  0.423E-01
  10.940  0.426E-01  0.426E-01
  10.950  0.433E-01  0.433E-01
  10.960  0.442E-01  0.442E-01
  10.970  0.451E-01  0.451E-01
  10.980  0.458E-01  0.458E-01
  10.990  0.462E-01  0.462E-01
  11.000  0.465E-01  0.465E-01
  11.010  0.467E-01  0.467E-01
  11.020  0.469E-01  0.469E-01
  11.030  0.472E-01  0.472E-01
  11.040  0.475E-01  0.475E-01
  11.050  0.477E-01  0.477E-01
  11.060  0.476E-01  0.476E-01
  11.070  0.471E-01  0.471E-01
  11.080  0.462E-01  0.462E-01
  11.090  0.449E-01  0.449E-01
  11.100  0.434E-01  0.434E-01
  11.110  0.419E-01  0.419E-01
  11.120  0.406E-01  0.406E-01
  11.130  0.396E-01  0.396E-01
  11.140  0.387E-01  0.387E-01
  11.150  0.378E-01  0.378E-01
  11.160  0.368E-01  0.368E-01
  11.170  0.355E-01  0.355E-01
  11.180  0.339E-01  0.339E-01
  11.190  0.319E-01  0.319E-01
  11.200  0.299E-01  0.299E-01
  11.210  0.282E-01  0.282E-01
  11.220  0.270E-01  0.270E-01
  11.230  0.265E-01  0.265E-01
  11.240  0.270E-01  0.270E-01
  11.250  0.282E-01  0.282E-01
  11.260  0.301E-01  0.301E-01
  11.270  0.322E-01  0.322E-01
  11.280  0.341E-01  0.341E-01
  11.290  0.356E-01  0.356E-01
  11.300  0.364E-01  0.364E-01
  11.310  0.363E-01  0.363E-01
  11.320  0.354E-01  0.354E-01
  11.330  0.338E-01  0.338E-01
  11.340  0.319E-01  0.319E-01
  11.350  0.299E-01  0.299E-01
  11.360  0.281E-01  0.281E-01
  11.370  0.268E-01  0.268E-01
  11.380  0.259E-01  0.259E-01
  11.390  0.256E-01  0.256E-01
  11.400  0.259E-01  0.259E-01
  11.410  0.266E-01  0.266E-01
  11.420  0.276E-01  0.276E-01
  11.430  0.287E-01  0.287E-01
  11.440  0.296E-01  0.296E-01
  11.450  0.302E-01  0.302E-01
  11.460  0.303E-01  0.303E-01
  11.470  0.298E-01  0.298E-01
  11.480  0.286E-01  0.286E-01
  11.490  0.269E-01  0.269E-01
  11.500  0.249E-01  0.249E-01
  11.510  0.226E-01  0.226E-01
  11.520  0.205E-01  0.205E-01
  11.530  0.188E-01  0.188E-01
  11.540  0.176E-01  0.176E-01
  11.550  0.170E-01  0.170E-01
  11.560  0.171E-01  0.171E-01
  11.570  0.178E-01  0.178E-01
  11.580  0.189E-01  0.189E-01
  11.590  0.204E-01  0.204E-01
  11.600  0.221E-01  0.221E-01
  11.610  0.237E-01  0.237E-01
  11.620  0.252E-01  0.252E-01
  11.630  0.263E-01  0.263E-01
  11.640  0.270E-01  0.270E-01
  11.650  0.272E-01  0.272E-01
  11.660  0.269E-01  0.269E-01
  11.670  0.261E-01  0.261E-01
  11.680  0.250E-01  0.250E-01
  11.690  0.236E-01  0.236E-01
  11.700  0.222E-01  0.222E-01
  11.710  0.208E-01  0.208E-01
  11.720  0.198E-01  0.198E-01
  11.730  0.192E-01  0.192E-01
  11.740  0.190E-01  0.190E-01
  11.750  0.193E-01  0.193E-01
  11.760  0.198E-01  0.198E-01
  11.770  0.206E-01  0.206E-01
  11.780  0.214E-01  0.214E-01
  11.790  0.222E-01  0.222E-01
  11.800  0.226E-01  0.226E-01
  11.810  0.227E-01  0.227E-01
  11.820  0.225E-01  0.225E-01
  11.830  0.219E-01  0.219E-01
  11.840  0.210E-01  0.210E-01
  11.850  0.200E-01  0.200E-01
  11.860  0.190E-01  0.190E-01
  11.870  0.181E-01  0.181E-01
  11.880  0.176E-01  0.176E-01
  11.890  0.174E-01  0.174E-01
  11.900  0.177E-01  0.177E-01
  11.910  0.184E-01  0.184E-01
  11.920  0.196E-01  0.196E-01
  11.930  0.210E-01  0.210E-01
  11.940  0.224E-01  0.224E-01
  11.950  0.238E-01  0.238E-01
  11.960  0.248E-01  0.248E-01
  11.970  0.253E-01  0.253E-01
  11.980  0.251E-01  0.251E-01
  11.990  0.244E-01  0.244E-01
  12.000  0.230E-01  0.230E-01
  12.010  0.215E-01  0.215E-01
  12.020  0.200E-01  0.200E-01
  12.030  0.188E-01  0.188E-01
  12.040  0.182E-01  0.182E-01
  12.050  0.183E-01  0.183E-01
  12.060  0.192E-01  0.192E-01
  12.070  0.206E-01  0.206E-01
  12.080  0.223E-01  0.223E-01
  12.090  0.241E-01  0.241E-01
  12.100  0.258E-01  0.258E-01
  12.110  0.272E-01  0.272E-01
  12.120  0.283E-01  0.283E-01
  12.130  0.291E-01  0.291E-01
  12.140  0.297E-01  0.297E-01
  12.150  0.300E-01  0.300E-01
  12.160  0.301E-01  0.301E-01
  12.170  0.298E-01  0.298E-01
  12.180  0.292E-01  0.292E-01
  12.190  0.281E-01  0.281E-01
  12.200  0.267E-01  0.267E-01
  12.210  0.249E-01  0.249E-01
  12.220  0.232E-01  0.232E-01
  12.230  0.216E-01  0.216E-01
  12.240  0.202E-01  0.202E-01
  12.250  0.193E-01  0.193E-01
  12.260  0.188E-01  0.188E-01
  12.270  0.186E-01  0.186E-01
  12.280  0.186E-01  0.186E-01
  12.290  0.188E-01  0.188E-01
  12.300  0.190E-01  0.190E-01
  12.310  0.192E-01  0.192E-01
  12.320  0.194E-01  0.194E-01
  12.330  0.195E-01  0.195E-01
  12.340  0.196E-01  0.196E-01
  12.350  0.197E-01  0.197E-01
  12.360  0.199E-01  0.199E-01
  12.370  0.201E-01  0.201E-01
  12.380  0.205E-01  0.205E-01
  12.390  0.209E-01  0.209E-01
  12.400  0.214E-01  0.214E-01
  12.410  0.219E-01  0.219E-01
  12.420  0.225E-01  0.225E-01
  12.430  0.230E-01  0.230E-01
  12.440  0.236E-01  0.236E-01
  12.450  0.240E-01  0.240E-01
  12.460  0.243E-01  0.243E-01
  12.470  0.243E-01  0.243E-01
  12.480  0.241E-01  0.241E-01
  12.490  0.235E-01  0.235E-01
  12.500  0.225E-01  0.225E-01
  12.510  0.212E-01  0.212E-01
  12.520  0.198E-01  0.198E-01
  12.530  0.182E-01  0.182E-01
  12.540  0.167E-01  0.167E-01
  12.550  0.154E-01  0.154E-01
  12.560  0.145E-01  0.145E-01
  12.570  0.140E-01  0.140E-01
  12.580  0.141E-01  0.141E-01
  12.590  0.147E-01  0.147E-01
  12.600  0.158E-01  0.158E-01
  12.610  0.172E-01  0.172E-01
  12.620  0.187E-01  0.187E-01
  12.630  0.203E-01  0.203E-01
  12.640  0.215E-01  0.215E-01
  12.650  0.224E-01  0.224E-01
  12.660  0.227E-01  0.227E-01
  12.670  0.225E-01  0.225E-01
  12.680  0.218E-01  0.218E-01
  12.690  0.207E-01  0.207E-01
  12.700  0.195E-01  0.195E-01
  12.710  0.184E-01  0.184E-01
  12.720  0.176E-01  0.176E-01
  12.730  0.173E-01  0.173E-01
  12.740  0.174E-01  0.174E-01
  12.750  0.181E-01  0.181E-01
  12.760  0.190E-01  0.190E-01
  12.770  0.201E-01  0.201E-01
  12.780  0.212E-01  0.212E-01
  12.790  0.222E-01  0.222E-01
  12.800  0.229E-01  0.229E-01
  12.810  0.234E-01  0.234E-01
  12.820  0.235E-01  0.235E-01
  12.830  0.234E-01  0.234E-01
  12.840  0.230E-01  0.230E-01
  12.850  0.225E-01  0.225E-01
  12.860  0.217E-01  0.217E-01
  12.870  0.207E-01  0.207E-01
  12.880  0.196E-01  0.196E-01
  12.890  0.183E-01  0.183E-01
  12.900  0.167E-01  0.167E-01
  12.910  0.150E-01  0.150E-01
  12.920  0.132E-01  0.132E-01
  12.930  0.114E-01  0.114E-01
  12.940  0.962E-02  0.962E-02
  12.950  0.808E-02  0.808E-02
  12.960  0.684E-02  0.684E-02
  12.970  0.599E-02  0.599E-02
  12.980  0.553E-02  0.553E-02
  12.990  0.546E-02  0.546E-02
  13.000  0.571E-02  0.571E-02
  13.010  0.622E-02  0.622E-02
  13.020  0.687E-02  0.687E-02
  13.030  0.760E-02  0.760E-02
  13.040  0.833E-02  0.833E-02
  13.050  0.902E-02  0.902E-02
  13.060  0.963E-02  0.963E-02
  13.070  0.101E-01  0.101E-01
  13.080  0.105E-01  0.105E-01
  13.090  0.108E-01  0.108E-01
  13.100  0.109E-01  0.109E-01
  13.110  0.107E-01  0.107E-01
  13.120  0.103E-01  0.103E-01
  13.130  0.965E-02  0.965E-02
  13.140  0.882E-02  0.882E-02
  13.150  0.788E-02  0.788E-02
  13.160  0.694E-02  0.694E-02
  13.170  0.609E-02  0.609E-02
  13.180  0.541E-02  0.541E-02
  13.190  0.495E-02  0.495E-02
  13.200  0.471E-02  0.471E-02
  13.210  0.466E-02  0.466E-02
  13.220  0.477E-02  0.477E-02
  13.230  0.499E-02  0.499E-02
  13.240  0.527E-02  0.527E-02
  13.250  0.558E-02  0.558E-02
  13.260  0.592E-02  0.592E-02
  13.270  0.627E-02  0.627E-02
  13.280  0.662E-02  0.662E-02
  13.290  0.696E-02  0.696E-02
  13.300  0.726E-02  0.726E-02
  13.310  0.751E-02  0.751E-02
  13.320  0.767E-02  0.767E-02
  13.330  0.772E-02  0.772E-02
  13.340  0.765E-02  0.765E-02
  13.350  0.746E-02  0.746E-02
  13.360  0.716E-02  0.716E-02
  13.370  0.674E-02  0.674E-02
  13.380  0.622E-02  0.622E-02
  13.390  0.564E-02  0.564E-02
  13.400  0.503E-02  0.503E-02
  13.410  0.442E-02  0.442E-02
  13.420  0.388E-02  0.388E-02
  13.430  0.346E-02  0.346E-02
  13.440  0.320E-02  0.320E-02
  13.450  0.312E-02  0.312E-02
  13.460  0.322E-02  0.322E-02
  13.470  0.346E-02  0.346E-02
  13.480  0.378E-02  0.378E-02
  13.490  0.412E-02  0.412E-02
  13.500  0.439E-02  0.439E-02
  13.510  0.454E-02  0.454E-02
  13.520  0.453E-02  0.453E-02
  13.530  0.437E-02  0.437E-02
  13.540  0.408E-02  0.408E-02
  13.550  0.373E-02  0.373E-02
  13.560  0.339E-02  0.339E-02
  13.570  0.313E-02  0.313E-02
  13.580  0.300E-02  0.300E-02
  13.590  0.300E-02  0.300E-02
  13.600  0.313E-02  0.313E-02
  13.610  0.334E-02  0.334E-02
  13.620  0.359E-02  0.359E-02
  13.630  0.381E-02  0.381E-02
  13.640  0.396E-02  0.396E-02
  13.650  0.402E-02  0.402E-02
  13.660  0.398E-02  0.398E-02
  13.670  0.384E-02  0.384E-02
  13.680  0.363E-02  0.363E-02
  13.690  0.335E-02  0.335E-02
  13.700  0.302E-02  0.302E-02
  13.710  0.266E-02  0.266E-02
  13.720  0.226E-02  0.226E-02
  13.730  0.185E-02  0.185E-02
  13.740  0.142E-02  0.142E-02
  13.750  0.101E-02  0.101E-02
  13.760  0.624E-03  0.624E-03
  13.770  0.289E-03  0.289E-03
  13.780  0.208E-04  0.208E-04
  13.790 -0.171E-03 -0.171E-03
  13.800 -0.287E-03 -0.287E-03
  13.810 -0.336E-03 -0.336E-03
  13.820 -0.333E-03 -0.333E-03
  13.830 -0.296E-03 -0.296E-03
  13.840 -0.240E-03 -0.240E-03
  13.850 -0.180E-03 -0.180E-03
  13.860 -0.122E-03 -0.122E-03
  13.870 -0.705E-04 -0.705E-04
  13.880 -0.263E-04 -0.263E-04
  13.890  0.125E-04  0.125E-04
  13.900  0.485E-04  0.485E-04
  13.910  0.837E-04  0.837E-04
  13.920  0.120E-03  0.120E-03
  13.930  0.156E-03  0.156E-03
  13.940  0.193E-03  0.193E-03
  13.950  0.229E-03  0.229E-03
  13.960  0.263E-03  0.263E-03
  13.970  0.295E-03  0.295E-03
  13.980  0.325E-03  0.325E-03
  13.990  0.356E-03  0.356E-03
  14.000  0.389E-03  0.389E-03
  14.010  0.424E-03  0.424E-03
  14.020  0.460E-03  0.460E-03
  14.030  0.493E-03  0.493E-03
  14.040  0.516E-03  0.516E-03
  14.050  0.524E-03  0.524E-03
  14.060  0.510E-03  0.510E-03
  14.070  0.471E-03  0.471E-03
  14.080  0.409E-03  0.409E-03
  14.090  0.330E-03  0.330E-03
  14.100  0.242E-03  0.242E-03
  14.110  0.155E-03  0.155E-03
  14.120  0.785E-04  0.785E-04
  14.130  0.189E-04  0.189E-04
  14.140 -0.206E-04 -0.206E-04
  14.150 -0.405E-04 -0.405E-04
  14.160 -0.438E-04 -0.438E-04
  14.170 -0.349E-04 -0.349E-04
  14.180 -0.185E-04 -0.185E-04
  14.190  0.104E-05  0.104E-05
  14.200  0.207E-04  0.207E-04
  14.210  0.384E-04  0.384E-04
  14.220  0.531E-04  0.531E-04
  14.230  0.644E-04  0.644E-04
  14.240  0.722E-04  0.722E-04
  14.250  0.767E-04  0.767E-04
  14.260  0.778E-04  0.778E-04
  14.270  0.755E-04  0.755E-04
  14.280  0.699E-04  0.699E-04
  14.290  0.615E-04  0.615E-04
  14.300  0.507E-04  0.507E-04
  14.310  0.386E-04  0.386E-04
  14.320  0.262E-04  0.262E-04
  14.330  0.148E-04  0.148E-04
  14.340  0.521E-05  0.521E-05
  14.350 -0.196E-05 -0.196E-05
  14.360 -0.657E-05 -0.657E-05
  14.370 -0.884E-05 -0.884E-05
  14.380 -0.928E-05 -0.928E-05
  14.390 -0.848E-05 -0.848E-05
  14.400 -0.702E-05 -0.702E-05
  14.410 -0.537E-05 -0.537E-05
  14.420 -0.384E-05 -0.384E-05
  14.430 -0.258E-05 -0.258E-05
  14.440 -0.164E-05 -0.164E-05
  14.450 -0.981E-06 -0.981E-06
  14.460 -0.559E-06 -0.559E-06
