# E (eV)   ldos(E)   pdos(E)   
 -20.380  0.104E-07  0.104E-07
 -20.370  0.305E-07  0.305E-07
 -20.360  0.857E-07  0.857E-07
 -20.350  0.230E-06  0.230E-06
 -20.340  0.593E-06  0.593E-06
 -20.330  0.146E-05  0.146E-05
 -20.320  0.346E-05  0.346E-05
 -20.310  0.785E-05  0.785E-05
 -20.300  0.171E-04  0.171E-04
 -20.290  0.355E-04  0.355E-04
 -20.280  0.710E-04  0.710E-04
 -20.270  0.136E-03  0.136E-03
 -20.260  0.250E-03  0.250E-03
 -20.250  0.440E-03  0.440E-03
 -20.240  0.743E-03  0.743E-03
 -20.230  0.121E-02  0.121E-02
 -20.220  0.188E-02  0.188E-02
 -20.210  0.281E-02  0.281E-02
 -20.200  0.404E-02  0.404E-02
 -20.190  0.559E-02  0.559E-02
 -20.180  0.743E-02  0.743E-02
 -20.170  0.953E-02  0.953E-02
 -20.160  0.118E-01  0.118E-01
 -20.150  0.141E-01  0.141E-01
 -20.140  0.163E-01  0.163E-01
 -20.130  0.183E-01  0.183E-01
 -20.120  0.199E-01  0.199E-01
 -20.110  0.212E-01  0.212E-01
 -20.100  0.221E-01  0.221E-01
 -20.090  0.226E-01  0.226E-01
 -20.080  0.228E-01  0.228E-01
 -20.070  0.228E-01  0.228E-01
 -20.060  0.228E-01  0.228E-01
 -20.050  0.228E-01  0.228E-01
 -20.040  0.230E-01  0.230E-01
 -20.030  0.235E-01  0.235E-01
 -20.020  0.245E-01  0.245E-01
 -20.010  0.262E-01  0.262E-01
 -20.000  0.288E-01  0.288E-01
 -19.990  0.328E-01  0.328E-01
 -19.980  0.383E-01  0.383E-01
 -19.970  0.457E-01  0.457E-01
 -19.960  0.551E-01  0.551E-01
 -19.950  0.663E-01  0.663E-01
 -19.940  0.791E-01  0.791E-01
 -19.930  0.930E-01  0.930E-01
 -19.920  0.107E+00  0.107E+00
 -19.910  0.121E+00  0.121E+00
 -19.900  0.133E+00  0.133E+00
 -19.890  0.143E+00  0.143E+00
 -19.880  0.150E+00  0.150E+00
 -19.870  0.155E+00  0.155E+00
 -19.860  0.157E+00  0.157E+00
 -19.850  0.157E+00  0.157E+00
 -19.840  0.156E+00  0.156E+00
 -19.830  0.153E+00  0.153E+00
 -19.820  0.150E+00  0.150E+00
 -19.810  0.147E+00  0.147E+00
 -19.800  0.145E+00  0.145E+00
 -19.790  0.142E+00  0.142E+00
 -19.780  0.140E+00  0.140E+00
 -19.770  0.139E+00  0.139E+00
 -19.760  0.137E+00  0.137E+00
 -19.750  0.136E+00  0.136E+00
 -19.740  0.135E+00  0.135E+00
 -19.730  0.134E+00  0.134E+00
 -19.720  0.133E+00  0.133E+00
 -19.710  0.132E+00  0.132E+00
 -19.700  0.131E+00  0.131E+00
 -19.690  0.130E+00  0.130E+00
 -19.680  0.130E+00  0.130E+00
 -19.670  0.129E+00  0.129E+00
 -19.660  0.128E+00  0.128E+00
 -19.650  0.127E+00  0.127E+00
 -19.640  0.126E+00  0.126E+00
 -19.630  0.125E+00  0.125E+00
 -19.620  0.124E+00  0.124E+00
 -19.610  0.123E+00  0.123E+00
 -19.600  0.123E+00  0.123E+00
 -19.590  0.123E+00  0.123E+00
 -19.580  0.122E+00  0.122E+00
 -19.570  0.121E+00  0.121E+00
 -19.560  0.120E+00  0.120E+00
 -19.550  0.119E+00  0.119E+00
 -19.540  0.118E+00  0.118E+00
 -19.530  0.117E+00  0.117E+00
 -19.520  0.116E+00  0.116E+00
 -19.510  0.116E+00  0.116E+00
 -19.500  0.116E+00  0.116E+00
 -19.490  0.116E+00  0.116E+00
 -19.480  0.116E+00  0.116E+00
 -19.470  0.115E+00  0.115E+00
 -19.460  0.114E+00  0.114E+00
 -19.450  0.113E+00  0.113E+00
 -19.440  0.112E+00  0.112E+00
 -19.430  0.111E+00  0.111E+00
 -19.420  0.110E+00  0.110E+00
 -19.410  0.110E+00  0.110E+00
 -19.400  0.109E+00  0.109E+00
 -19.390  0.109E+00  0.109E+00
 -19.380  0.109E+00  0.109E+00
 -19.370  0.109E+00  0.109E+00
 -19.360  0.108E+00  0.108E+00
 -19.350  0.108E+00  0.108E+00
 -19.340  0.107E+00  0.107E+00
 -19.330  0.106E+00  0.106E+00
 -19.320  0.105E+00  0.105E+00
 -19.310  0.104E+00  0.104E+00
 -19.300  0.103E+00  0.103E+00
 -19.290  0.102E+00  0.102E+00
 -19.280  0.102E+00  0.102E+00
 -19.270  0.102E+00  0.102E+00
 -19.260  0.102E+00  0.102E+00
 -19.250  0.102E+00  0.102E+00
 -19.240  0.103E+00  0.103E+00
 -19.230  0.103E+00  0.103E+00
 -19.220  0.103E+00  0.103E+00
 -19.210  0.102E+00  0.102E+00
 -19.200  0.100E+00  0.100E+00
 -19.190  0.981E-01  0.981E-01
 -19.180  0.960E-01  0.960E-01
 -19.170  0.944E-01  0.944E-01
 -19.160  0.936E-01  0.936E-01
 -19.150  0.938E-01  0.938E-01
 -19.140  0.949E-01  0.949E-01
 -19.130  0.966E-01  0.966E-01
 -19.120  0.982E-01  0.982E-01
 -19.110  0.993E-01  0.993E-01
 -19.100  0.994E-01  0.994E-01
 -19.090  0.983E-01  0.983E-01
 -19.080  0.961E-01  0.961E-01
 -19.070  0.933E-01  0.933E-01
 -19.060  0.903E-01  0.903E-01
 -19.050  0.879E-01  0.879E-01
 -19.040  0.865E-01  0.865E-01
 -19.030  0.864E-01  0.864E-01
 -19.020  0.876E-01  0.876E-01
 -19.010  0.898E-01  0.898E-01
 -19.000  0.924E-01  0.924E-01
 -18.990  0.946E-01  0.946E-01
 -18.980  0.959E-01  0.959E-01
 -18.970  0.957E-01  0.957E-01
 -18.960  0.941E-01  0.941E-01
 -18.950  0.913E-01  0.913E-01
 -18.940  0.878E-01  0.878E-01
 -18.930  0.843E-01  0.843E-01
 -18.920  0.816E-01  0.816E-01
 -18.910  0.801E-01  0.801E-01
 -18.900  0.802E-01  0.802E-01
 -18.890  0.817E-01  0.817E-01
 -18.880  0.842E-01  0.842E-01
 -18.870  0.871E-01  0.871E-01
 -18.860  0.897E-01  0.897E-01
 -18.850  0.913E-01  0.913E-01
 -18.840  0.917E-01  0.917E-01
 -18.830  0.905E-01  0.905E-01
 -18.820  0.881E-01  0.881E-01
 -18.810  0.847E-01  0.847E-01
 -18.800  0.811E-01  0.811E-01
 -18.790  0.779E-01  0.779E-01
 -18.780  0.757E-01  0.757E-01
 -18.770  0.749E-01  0.749E-01
 -18.760  0.757E-01  0.757E-01
 -18.750  0.777E-01  0.777E-01
 -18.740  0.805E-01  0.805E-01
 -18.730  0.834E-01  0.834E-01
 -18.720  0.857E-01  0.857E-01
 -18.710  0.869E-01  0.869E-01
 -18.700  0.868E-01  0.868E-01
 -18.690  0.852E-01  0.852E-01
 -18.680  0.826E-01  0.826E-01
 -18.670  0.794E-01  0.794E-01
 -18.660  0.761E-01  0.761E-01
 -18.650  0.734E-01  0.734E-01
 -18.640  0.717E-01  0.717E-01
 -18.630  0.713E-01  0.713E-01
 -18.620  0.721E-01  0.721E-01
 -18.610  0.739E-01  0.739E-01
 -18.600  0.764E-01  0.764E-01
 -18.590  0.789E-01  0.789E-01
 -18.580  0.810E-01  0.810E-01
 -18.570  0.820E-01  0.820E-01
 -18.560  0.819E-01  0.819E-01
 -18.550  0.805E-01  0.805E-01
 -18.540  0.780E-01  0.780E-01
 -18.530  0.751E-01  0.751E-01
 -18.520  0.721E-01  0.721E-01
 -18.510  0.697E-01  0.697E-01
 -18.500  0.682E-01  0.682E-01
 -18.490  0.678E-01  0.678E-01
 -18.480  0.686E-01  0.686E-01
 -18.470  0.703E-01  0.703E-01
 -18.460  0.726E-01  0.726E-01
 -18.450  0.749E-01  0.749E-01
 -18.440  0.768E-01  0.768E-01
 -18.430  0.779E-01  0.779E-01
 -18.420  0.777E-01  0.777E-01
 -18.410  0.764E-01  0.764E-01
 -18.400  0.742E-01  0.742E-01
 -18.390  0.713E-01  0.713E-01
 -18.380  0.683E-01  0.683E-01
 -18.370  0.658E-01  0.658E-01
 -18.360  0.642E-01  0.642E-01
 -18.350  0.638E-01  0.638E-01
 -18.340  0.645E-01  0.645E-01
 -18.330  0.662E-01  0.662E-01
 -18.320  0.686E-01  0.686E-01
 -18.310  0.710E-01  0.710E-01
 -18.300  0.732E-01  0.732E-01
 -18.290  0.745E-01  0.745E-01
 -18.280  0.748E-01  0.748E-01
 -18.270  0.740E-01  0.740E-01
 -18.260  0.720E-01  0.720E-01
 -18.250  0.693E-01  0.693E-01
 -18.240  0.662E-01  0.662E-01
 -18.230  0.632E-01  0.632E-01
 -18.220  0.607E-01  0.607E-01
 -18.210  0.593E-01  0.593E-01
 -18.200  0.591E-01  0.591E-01
 -18.190  0.602E-01  0.602E-01
 -18.180  0.624E-01  0.624E-01
 -18.170  0.653E-01  0.653E-01
 -18.160  0.683E-01  0.683E-01
 -18.150  0.708E-01  0.708E-01
 -18.140  0.724E-01  0.724E-01
 -18.130  0.727E-01  0.727E-01
 -18.120  0.716E-01  0.716E-01
 -18.110  0.693E-01  0.693E-01
 -18.100  0.662E-01  0.662E-01
 -18.090  0.627E-01  0.627E-01
 -18.080  0.595E-01  0.595E-01
 -18.070  0.569E-01  0.569E-01
 -18.060  0.553E-01  0.553E-01
 -18.050  0.549E-01  0.549E-01
 -18.040  0.559E-01  0.559E-01
 -18.030  0.579E-01  0.579E-01
 -18.020  0.607E-01  0.607E-01
 -18.010  0.638E-01  0.638E-01
 -18.000  0.667E-01  0.667E-01
 -17.990  0.687E-01  0.687E-01
 -17.980  0.696E-01  0.696E-01
 -17.970  0.691E-01  0.691E-01
 -17.960  0.673E-01  0.673E-01
 -17.950  0.645E-01  0.645E-01
 -17.940  0.611E-01  0.611E-01
 -17.930  0.577E-01  0.577E-01
 -17.920  0.548E-01  0.548E-01
 -17.910  0.528E-01  0.528E-01
 -17.900  0.520E-01  0.520E-01
 -17.890  0.524E-01  0.524E-01
 -17.880  0.538E-01  0.538E-01
 -17.870  0.561E-01  0.561E-01
 -17.860  0.588E-01  0.588E-01
 -17.850  0.616E-01  0.616E-01
 -17.840  0.639E-01  0.639E-01
 -17.830  0.653E-01  0.653E-01
 -17.820  0.656E-01  0.656E-01
 -17.810  0.646E-01  0.646E-01
 -17.800  0.625E-01  0.625E-01
 -17.790  0.596E-01  0.596E-01
 -17.780  0.564E-01  0.564E-01
 -17.770  0.534E-01  0.534E-01
 -17.760  0.511E-01  0.511E-01
 -17.750  0.498E-01  0.498E-01
 -17.740  0.497E-01  0.497E-01
 -17.730  0.507E-01  0.507E-01
 -17.720  0.527E-01  0.527E-01
 -17.710  0.551E-01  0.551E-01
 -17.700  0.576E-01  0.576E-01
 -17.690  0.598E-01  0.598E-01
 -17.680  0.613E-01  0.613E-01
 -17.670  0.618E-01  0.618E-01
 -17.660  0.612E-01  0.612E-01
 -17.650  0.596E-01  0.596E-01
 -17.640  0.571E-01  0.571E-01
 -17.630  0.543E-01  0.543E-01
 -17.620  0.515E-01  0.515E-01
 -17.610  0.492E-01  0.492E-01
 -17.600  0.477E-01  0.477E-01
 -17.590  0.473E-01  0.473E-01
 -17.580  0.481E-01  0.481E-01
 -17.570  0.497E-01  0.497E-01
 -17.560  0.519E-01  0.519E-01
 -17.550  0.544E-01  0.544E-01
 -17.540  0.566E-01  0.566E-01
 -17.530  0.582E-01  0.582E-01
 -17.520  0.588E-01  0.588E-01
 -17.510  0.585E-01  0.585E-01
 -17.500  0.571E-01  0.571E-01
 -17.490  0.550E-01  0.550E-01
 -17.480  0.523E-01  0.523E-01
 -17.470  0.496E-01  0.496E-01
 -17.460  0.472E-01  0.472E-01
 -17.450  0.456E-01  0.456E-01
 -17.440  0.449E-01  0.449E-01
 -17.430  0.453E-01  0.453E-01
 -17.420  0.466E-01  0.466E-01
 -17.410  0.486E-01  0.486E-01
 -17.400  0.510E-01  0.510E-01
 -17.390  0.533E-01  0.533E-01
 -17.380  0.551E-01  0.551E-01
 -17.370  0.560E-01  0.560E-01
 -17.360  0.559E-01  0.559E-01
 -17.350  0.549E-01  0.549E-01
 -17.340  0.530E-01  0.530E-01
 -17.330  0.506E-01  0.506E-01
 -17.320  0.480E-01  0.480E-01
 -17.310  0.458E-01  0.458E-01
 -17.300  0.441E-01  0.441E-01
 -17.290  0.434E-01  0.434E-01
 -17.280  0.436E-01  0.436E-01
 -17.270  0.447E-01  0.447E-01
 -17.260  0.465E-01  0.465E-01
 -17.250  0.487E-01  0.487E-01
 -17.240  0.507E-01  0.507E-01
 -17.230  0.523E-01  0.523E-01
 -17.220  0.531E-01  0.531E-01
 -17.210  0.530E-01  0.530E-01
 -17.200  0.520E-01  0.520E-01
 -17.190  0.503E-01  0.503E-01
 -17.180  0.482E-01  0.482E-01
 -17.170  0.460E-01  0.460E-01
 -17.160  0.441E-01  0.441E-01
 -17.150  0.430E-01  0.430E-01
 -17.140  0.427E-01  0.427E-01
 -17.130  0.432E-01  0.432E-01
 -17.120  0.446E-01  0.446E-01
 -17.110  0.464E-01  0.464E-01
 -17.100  0.484E-01  0.484E-01
 -17.090  0.502E-01  0.502E-01
 -17.080  0.513E-01  0.513E-01
 -17.070  0.517E-01  0.517E-01
 -17.060  0.511E-01  0.511E-01
 -17.050  0.499E-01  0.499E-01
 -17.040  0.481E-01  0.481E-01
 -17.030  0.462E-01  0.462E-01
 -17.020  0.446E-01  0.446E-01
 -17.010  0.436E-01  0.436E-01
 -17.000  0.434E-01  0.434E-01
 -16.990  0.441E-01  0.441E-01
 -16.980  0.456E-01  0.456E-01
 -16.970  0.477E-01  0.477E-01
 -16.960  0.499E-01  0.499E-01
 -16.950  0.520E-01  0.520E-01
 -16.940  0.535E-01  0.535E-01
 -16.930  0.544E-01  0.544E-01
 -16.920  0.546E-01  0.546E-01
 -16.910  0.543E-01  0.543E-01
 -16.900  0.536E-01  0.536E-01
 -16.890  0.531E-01  0.531E-01
 -16.880  0.530E-01  0.530E-01
 -16.870  0.535E-01  0.535E-01
 -16.860  0.545E-01  0.545E-01
 -16.850  0.560E-01  0.560E-01
 -16.840  0.575E-01  0.575E-01
 -16.830  0.585E-01  0.585E-01
 -16.820  0.585E-01  0.585E-01
 -16.810  0.573E-01  0.573E-01
 -16.800  0.546E-01  0.546E-01
 -16.790  0.508E-01  0.508E-01
 -16.780  0.462E-01  0.462E-01
 -16.770  0.414E-01  0.414E-01
 -16.760  0.371E-01  0.371E-01
 -16.750  0.337E-01  0.337E-01
 -16.740  0.314E-01  0.314E-01
 -16.730  0.301E-01  0.301E-01
 -16.720  0.295E-01  0.295E-01
 -16.710  0.293E-01  0.293E-01
 -16.700  0.288E-01  0.288E-01
 -16.690  0.280E-01  0.280E-01
 -16.680  0.267E-01  0.267E-01
 -16.670  0.251E-01  0.251E-01
 -16.660  0.233E-01  0.233E-01
 -16.650  0.217E-01  0.217E-01
 -16.640  0.205E-01  0.205E-01
 -16.630  0.197E-01  0.197E-01
 -16.620  0.192E-01  0.192E-01
 -16.610  0.189E-01  0.189E-01
 -16.600  0.187E-01  0.187E-01
 -16.590  0.183E-01  0.183E-01
 -16.580  0.176E-01  0.176E-01
 -16.570  0.168E-01  0.168E-01
 -16.560  0.158E-01  0.158E-01
 -16.550  0.148E-01  0.148E-01
 -16.540  0.139E-01  0.139E-01
 -16.530  0.132E-01  0.132E-01
 -16.520  0.126E-01  0.126E-01
 -16.510  0.121E-01  0.121E-01
 -16.500  0.117E-01  0.117E-01
 -16.490  0.113E-01  0.113E-01
 -16.480  0.107E-01  0.107E-01
 -16.470  0.102E-01  0.102E-01
 -16.460  0.956E-02  0.956E-02
 -16.450  0.895E-02  0.895E-02
 -16.440  0.837E-02  0.837E-02
 -16.430  0.783E-02  0.783E-02
 -16.420  0.733E-02  0.733E-02
 -16.410  0.686E-02  0.686E-02
 -16.400  0.640E-02  0.640E-02
 -16.390  0.594E-02  0.594E-02
 -16.380  0.547E-02  0.547E-02
 -16.370  0.500E-02  0.500E-02
 -16.360  0.453E-02  0.453E-02
 -16.350  0.407E-02  0.407E-02
 -16.340  0.362E-02  0.362E-02
 -16.330  0.319E-02  0.319E-02
 -16.320  0.277E-02  0.277E-02
 -16.310  0.237E-02  0.237E-02
 -16.300  0.198E-02  0.198E-02
 -16.290  0.161E-02  0.161E-02
 -16.280  0.126E-02  0.126E-02
 -16.270  0.943E-03  0.943E-03
 -16.260  0.661E-03  0.661E-03
 -16.250  0.419E-03  0.419E-03
 -16.240  0.222E-03  0.222E-03
 -16.230  0.683E-04  0.683E-04
 -16.220 -0.412E-04 -0.412E-04
 -16.210 -0.110E-03 -0.110E-03
 -16.200 -0.145E-03 -0.145E-03
 -16.190 -0.152E-03 -0.152E-03
 -16.180 -0.139E-03 -0.139E-03
 -16.170 -0.114E-03 -0.114E-03
 -16.160 -0.839E-04 -0.839E-04
 -16.150 -0.540E-04 -0.540E-04
 -16.140 -0.277E-04 -0.277E-04
 -16.130 -0.666E-05 -0.666E-05
 -16.120  0.879E-05  0.879E-05
 -16.110  0.193E-04  0.193E-04
 -16.100  0.261E-04  0.261E-04
 -16.090  0.302E-04  0.302E-04
 -16.080  0.326E-04  0.326E-04
 -16.070  0.338E-04  0.338E-04
 -16.060  0.341E-04  0.341E-04
 -16.050  0.335E-04  0.335E-04
 -16.040  0.322E-04  0.322E-04
 -16.030  0.305E-04  0.305E-04
 -16.020  0.285E-04  0.285E-04
 -16.010  0.267E-04  0.267E-04
 -16.000  0.254E-04  0.254E-04
 -15.990  0.251E-04  0.251E-04
 -15.980  0.259E-04  0.259E-04
 -15.970  0.277E-04  0.277E-04
 -15.960  0.303E-04  0.303E-04
 -15.950  0.334E-04  0.334E-04
 -15.940  0.365E-04  0.365E-04
 -15.930  0.392E-04  0.392E-04
 -15.920  0.411E-04  0.411E-04
 -15.910  0.418E-04  0.418E-04
 -15.900  0.413E-04  0.413E-04
 -15.890  0.397E-04  0.397E-04
 -15.880  0.372E-04  0.372E-04
 -15.870  0.340E-04  0.340E-04
 -15.860  0.306E-04  0.306E-04
 -15.850  0.271E-04  0.271E-04
 -15.840  0.239E-04  0.239E-04
 -15.830  0.213E-04  0.213E-04
 -15.820  0.193E-04  0.193E-04
 -15.810  0.180E-04  0.180E-04
 -15.800  0.173E-04  0.173E-04
 -15.790  0.171E-04  0.171E-04
 -15.780  0.171E-04  0.171E-04
 -15.770  0.171E-04  0.171E-04
 -15.760  0.170E-04  0.170E-04
 -15.750  0.167E-04  0.167E-04
 -15.740  0.162E-04  0.162E-04
 -15.730  0.156E-04  0.156E-04
 -15.720  0.151E-04  0.151E-04
 -15.710  0.148E-04  0.148E-04
 -15.700  0.150E-04  0.150E-04
 -15.690  0.157E-04  0.157E-04
 -15.680  0.167E-04  0.167E-04
 -15.670  0.180E-04  0.180E-04
 -15.660  0.193E-04  0.193E-04
 -15.650  0.204E-04  0.204E-04
 -15.640  0.211E-04  0.211E-04
 -15.630  0.212E-04  0.212E-04
 -15.620  0.206E-04  0.206E-04
 -15.610  0.196E-04  0.196E-04
 -15.600  0.182E-04  0.182E-04
 -15.590  0.166E-04  0.166E-04
 -15.580  0.149E-04  0.149E-04
 -15.570  0.134E-04  0.134E-04
 -15.560  0.121E-04  0.121E-04
 -15.550  0.110E-04  0.110E-04
 -15.540  0.103E-04  0.103E-04
 -15.530  0.981E-05  0.981E-05
 -15.520  0.966E-05  0.966E-05
 -15.510  0.974E-05  0.974E-05
 -15.500  0.998E-05  0.998E-05
 -15.490  0.103E-04  0.103E-04
 -15.480  0.105E-04  0.105E-04
 -15.470  0.106E-04  0.106E-04
 -15.460  0.106E-04  0.106E-04
 -15.450  0.104E-04  0.104E-04
 -15.440  0.102E-04  0.102E-04
 -15.430  0.100E-04  0.100E-04
 -15.420  0.996E-05  0.996E-05
 -15.410  0.101E-04  0.101E-04
 -15.400  0.105E-04  0.105E-04
 -15.390  0.111E-04  0.111E-04
 -15.380  0.117E-04  0.117E-04
 -15.370  0.123E-04  0.123E-04
 -15.360  0.127E-04  0.127E-04
 -15.350  0.129E-04  0.129E-04
 -15.340  0.128E-04  0.128E-04
 -15.330  0.124E-04  0.124E-04
 -15.320  0.119E-04  0.119E-04
 -15.310  0.113E-04  0.113E-04
 -15.300  0.108E-04  0.108E-04
 -15.290  0.103E-04  0.103E-04
 -15.280  0.100E-04  0.100E-04
 -15.270  0.989E-05  0.989E-05
 -15.260  0.997E-05  0.997E-05
 -15.250  0.102E-04  0.102E-04
 -15.240  0.105E-04  0.105E-04
 -15.230  0.109E-04  0.109E-04
 -15.220  0.113E-04  0.113E-04
 -15.210  0.116E-04  0.116E-04
 -15.200  0.119E-04  0.119E-04
 -15.190  0.120E-04  0.120E-04
 -15.180  0.121E-04  0.121E-04
 -15.170  0.122E-04  0.122E-04
 -15.160  0.125E-04  0.125E-04
 -15.150  0.129E-04  0.129E-04
 -15.140  0.135E-04  0.135E-04
 -15.130  0.143E-04  0.143E-04
 -15.120  0.152E-04  0.152E-04
 -15.110  0.163E-04  0.163E-04
 -15.100  0.173E-04  0.173E-04
 -15.090  0.183E-04  0.183E-04
 -15.080  0.193E-04  0.193E-04
 -15.070  0.201E-04  0.201E-04
 -15.060  0.210E-04  0.210E-04
 -15.050  0.216E-04  0.216E-04
 -15.040  0.221E-04  0.221E-04
 -15.030  0.224E-04  0.224E-04
 -15.020  0.223E-04  0.223E-04
 -15.010  0.219E-04  0.219E-04
 -15.000  0.212E-04  0.212E-04
 -14.990  0.202E-04  0.202E-04
 -14.980  0.189E-04  0.189E-04
 -14.970  0.176E-04  0.176E-04
 -14.960  0.161E-04  0.161E-04
 -14.950  0.148E-04  0.148E-04
 -14.940  0.135E-04  0.135E-04
 -14.930  0.124E-04  0.124E-04
 -14.920  0.116E-04  0.116E-04
 -14.910  0.110E-04  0.110E-04
 -14.900  0.107E-04  0.107E-04
 -14.890  0.106E-04  0.106E-04
 -14.880  0.106E-04  0.106E-04
 -14.870  0.107E-04  0.107E-04
 -14.860  0.106E-04  0.106E-04
 -14.850  0.104E-04  0.104E-04
 -14.840  0.987E-05  0.987E-05
 -14.830  0.918E-05  0.918E-05
 -14.820  0.839E-05  0.839E-05
 -14.810  0.765E-05  0.765E-05
 -14.800  0.712E-05  0.712E-05
 -14.790  0.692E-05  0.692E-05
 -14.780  0.712E-05  0.712E-05
 -14.770  0.768E-05  0.768E-05
 -14.760  0.852E-05  0.852E-05
 -14.750  0.945E-05  0.945E-05
 -14.740  0.103E-04  0.103E-04
 -14.730  0.109E-04  0.109E-04
 -14.720  0.110E-04  0.110E-04
 -14.710  0.106E-04  0.106E-04
 -14.700  0.972E-05  0.972E-05
 -14.690  0.844E-05  0.844E-05
 -14.680  0.692E-05  0.692E-05
 -14.670  0.536E-05  0.536E-05
 -14.660  0.395E-05  0.395E-05
 -14.650  0.289E-05  0.289E-05
 -14.640  0.227E-05  0.227E-05
 -14.630  0.216E-05  0.216E-05
 -14.620  0.254E-05  0.254E-05
 -14.610  0.334E-05  0.334E-05
 -14.600  0.447E-05  0.447E-05
 -14.590  0.582E-05  0.582E-05
 -14.580  0.724E-05  0.724E-05
 -14.570  0.862E-05  0.862E-05
 -14.560  0.979E-05  0.979E-05
 -14.550  0.106E-04  0.106E-04
 -14.540  0.110E-04  0.110E-04
 -14.530  0.109E-04  0.109E-04
 -14.520  0.102E-04  0.102E-04
 -14.510  0.909E-05  0.909E-05
 -14.500  0.761E-05  0.761E-05
 -14.490  0.597E-05  0.597E-05
 -14.480  0.437E-05  0.437E-05
 -14.470  0.299E-05  0.299E-05
 -14.460  0.196E-05  0.196E-05
 -14.450  0.131E-05  0.131E-05
 -14.440  0.106E-05  0.106E-05
 -14.430  0.112E-05  0.112E-05
 -14.420  0.144E-05  0.144E-05
 -14.410  0.193E-05  0.193E-05
 -14.400  0.253E-05  0.253E-05
 -14.390  0.321E-05  0.321E-05
 -14.380  0.396E-05  0.396E-05
 -14.370  0.478E-05  0.478E-05
 -14.360  0.564E-05  0.564E-05
 -14.350  0.651E-05  0.651E-05
 -14.340  0.734E-05  0.734E-05
 -14.330  0.804E-05  0.804E-05
 -14.320  0.853E-05  0.853E-05
 -14.310  0.873E-05  0.873E-05
 -14.300  0.861E-05  0.861E-05
 -14.290  0.814E-05  0.814E-05
 -14.280  0.736E-05  0.736E-05
 -14.270  0.635E-05  0.635E-05
 -14.260  0.523E-05  0.523E-05
 -14.250  0.410E-05  0.410E-05
 -14.240  0.309E-05  0.309E-05
 -14.230  0.227E-05  0.227E-05
 -14.220  0.168E-05  0.168E-05
 -14.210  0.133E-05  0.133E-05
 -14.200  0.120E-05  0.120E-05
 -14.190  0.124E-05  0.124E-05
 -14.180  0.141E-05  0.141E-05
 -14.170  0.169E-05  0.169E-05
 -14.160  0.206E-05  0.206E-05
 -14.150  0.251E-05  0.251E-05
 -14.140  0.302E-05  0.302E-05
 -14.130  0.357E-05  0.357E-05
 -14.120  0.413E-05  0.413E-05
 -14.110  0.467E-05  0.467E-05
 -14.100  0.517E-05  0.517E-05
 -14.090  0.559E-05  0.559E-05
 -14.080  0.590E-05  0.590E-05
 -14.070  0.610E-05  0.610E-05
 -14.060  0.616E-05  0.616E-05
 -14.050  0.607E-05  0.607E-05
 -14.040  0.582E-05  0.582E-05
 -14.030  0.543E-05  0.543E-05
 -14.020  0.490E-05  0.490E-05
 -14.010  0.430E-05  0.430E-05
 -14.000  0.366E-05  0.366E-05
 -13.990  0.305E-05  0.305E-05
 -13.980  0.253E-05  0.253E-05
 -13.970  0.214E-05  0.214E-05
 -13.960  0.191E-05  0.191E-05
 -13.950  0.185E-05  0.185E-05
 -13.940  0.195E-05  0.195E-05
 -13.930  0.223E-05  0.223E-05
 -13.920  0.266E-05  0.266E-05
 -13.910  0.325E-05  0.325E-05
 -13.900  0.396E-05  0.396E-05
 -13.890  0.478E-05  0.478E-05
 -13.880  0.566E-05  0.566E-05
 -13.870  0.654E-05  0.654E-05
 -13.860  0.739E-05  0.739E-05
 -13.850  0.815E-05  0.815E-05
 -13.840  0.879E-05  0.879E-05
 -13.830  0.929E-05  0.929E-05
 -13.820  0.965E-05  0.965E-05
 -13.810  0.987E-05  0.987E-05
 -13.800  0.994E-05  0.994E-05
 -13.790  0.986E-05  0.986E-05
 -13.780  0.962E-05  0.962E-05
 -13.770  0.924E-05  0.924E-05
 -13.760  0.875E-05  0.875E-05
 -13.750  0.822E-05  0.822E-05
 -13.740  0.774E-05  0.774E-05
 -13.730  0.740E-05  0.740E-05
 -13.720  0.730E-05  0.730E-05
 -13.710  0.746E-05  0.746E-05
 -13.700  0.788E-05  0.788E-05
 -13.690  0.848E-05  0.848E-05
 -13.680  0.916E-05  0.916E-05
 -13.670  0.978E-05  0.978E-05
 -13.660  0.102E-04  0.102E-04
 -13.650  0.104E-04  0.104E-04
 -13.640  0.104E-04  0.104E-04
 -13.630  0.102E-04  0.102E-04
 -13.620  0.993E-05  0.993E-05
 -13.610  0.972E-05  0.972E-05
 -13.600  0.970E-05  0.970E-05
 -13.590  0.992E-05  0.992E-05
 -13.580  0.104E-04  0.104E-04
 -13.570  0.111E-04  0.111E-04
 -13.560  0.118E-04  0.118E-04
 -13.550  0.126E-04  0.126E-04
 -13.540  0.132E-04  0.132E-04
 -13.530  0.136E-04  0.136E-04
 -13.520  0.137E-04  0.137E-04
 -13.510  0.136E-04  0.136E-04
 -13.500  0.131E-04  0.131E-04
 -13.490  0.125E-04  0.125E-04
 -13.480  0.118E-04  0.118E-04
 -13.470  0.110E-04  0.110E-04
 -13.460  0.103E-04  0.103E-04
 -13.450  0.988E-05  0.988E-05
 -13.440  0.978E-05  0.978E-05
 -13.430  0.101E-04  0.101E-04
 -13.420  0.108E-04  0.108E-04
 -13.410  0.119E-04  0.119E-04
 -13.400  0.133E-04  0.133E-04
 -13.390  0.148E-04  0.148E-04
 -13.380  0.161E-04  0.161E-04
 -13.370  0.171E-04  0.171E-04
 -13.360  0.177E-04  0.177E-04
 -13.350  0.178E-04  0.178E-04
 -13.340  0.175E-04  0.175E-04
 -13.330  0.168E-04  0.168E-04
 -13.320  0.159E-04  0.159E-04
 -13.310  0.151E-04  0.151E-04
 -13.300  0.143E-04  0.143E-04
 -13.290  0.138E-04  0.138E-04
 -13.280  0.135E-04  0.135E-04
 -13.270  0.135E-04  0.135E-04
 -13.260  0.140E-04  0.140E-04
 -13.250  0.148E-04  0.148E-04
 -13.240  0.160E-04  0.160E-04
 -13.230  0.176E-04  0.176E-04
 -13.220  0.195E-04  0.195E-04
 -13.210  0.215E-04  0.215E-04
 -13.200  0.234E-04  0.234E-04
 -13.190  0.249E-04  0.249E-04
 -13.180  0.258E-04  0.258E-04
 -13.170  0.260E-04  0.260E-04
 -13.160  0.255E-04  0.255E-04
 -13.150  0.243E-04  0.243E-04
 -13.140  0.228E-04  0.228E-04
 -13.130  0.212E-04  0.212E-04
 -13.120  0.199E-04  0.199E-04
 -13.110  0.190E-04  0.190E-04
 -13.100  0.188E-04  0.188E-04
 -13.090  0.193E-04  0.193E-04
 -13.080  0.204E-04  0.204E-04
 -13.070  0.219E-04  0.219E-04
 -13.060  0.236E-04  0.236E-04
 -13.050  0.253E-04  0.253E-04
 -13.040  0.268E-04  0.268E-04
 -13.030  0.280E-04  0.280E-04
 -13.020  0.289E-04  0.289E-04
 -13.010  0.293E-04  0.293E-04
 -13.000  0.293E-04  0.293E-04
 -12.990  0.288E-04  0.288E-04
 -12.980  0.279E-04  0.279E-04
 -12.970  0.267E-04  0.267E-04
 -12.960  0.253E-04  0.253E-04
 -12.950  0.237E-04  0.237E-04
 -12.940  0.222E-04  0.222E-04
 -12.930  0.209E-04  0.209E-04
 -12.920  0.200E-04  0.200E-04
 -12.910  0.197E-04  0.197E-04
 -12.900  0.201E-04  0.201E-04
 -12.890  0.212E-04  0.212E-04
 -12.880  0.231E-04  0.231E-04
 -12.870  0.256E-04  0.256E-04
 -12.860  0.283E-04  0.283E-04
 -12.850  0.308E-04  0.308E-04
 -12.840  0.328E-04  0.328E-04
 -12.830  0.339E-04  0.339E-04
 -12.820  0.340E-04  0.340E-04
 -12.810  0.331E-04  0.331E-04
 -12.800  0.314E-04  0.314E-04
 -12.790  0.291E-04  0.291E-04
 -12.780  0.268E-04  0.268E-04
 -12.770  0.248E-04  0.248E-04
 -12.760  0.233E-04  0.233E-04
 -12.750  0.224E-04  0.224E-04
 -12.740  0.221E-04  0.221E-04
 -12.730  0.224E-04  0.224E-04
 -12.720  0.230E-04  0.230E-04
 -12.710  0.240E-04  0.240E-04
 -12.700  0.251E-04  0.251E-04
 -12.690  0.265E-04  0.265E-04
 -12.680  0.280E-04  0.280E-04
 -12.670  0.298E-04  0.298E-04
 -12.660  0.317E-04  0.317E-04
 -12.650  0.336E-04  0.336E-04
 -12.640  0.351E-04  0.351E-04
 -12.630  0.361E-04  0.361E-04
 -12.620  0.363E-04  0.363E-04
 -12.610  0.354E-04  0.354E-04
 -12.600  0.336E-04  0.336E-04
 -12.590  0.311E-04  0.311E-04
 -12.580  0.283E-04  0.283E-04
 -12.570  0.255E-04  0.255E-04
 -12.560  0.232E-04  0.232E-04
 -12.550  0.218E-04  0.218E-04
 -12.540  0.213E-04  0.213E-04
 -12.530  0.219E-04  0.219E-04
 -12.520  0.234E-04  0.234E-04
 -12.510  0.256E-04  0.256E-04
 -12.500  0.281E-04  0.281E-04
 -12.490  0.307E-04  0.307E-04
 -12.480  0.332E-04  0.332E-04
 -12.470  0.352E-04  0.352E-04
 -12.460  0.367E-04  0.367E-04
 -12.450  0.376E-04  0.376E-04
 -12.440  0.378E-04  0.378E-04
 -12.430  0.375E-04  0.375E-04
 -12.420  0.366E-04  0.366E-04
 -12.410  0.353E-04  0.353E-04
 -12.400  0.335E-04  0.335E-04
 -12.390  0.314E-04  0.314E-04
 -12.380  0.290E-04  0.290E-04
 -12.370  0.267E-04  0.267E-04
 -12.360  0.246E-04  0.246E-04
 -12.350  0.230E-04  0.230E-04
 -12.340  0.222E-04  0.222E-04
 -12.330  0.223E-04  0.223E-04
 -12.320  0.235E-04  0.235E-04
 -12.310  0.258E-04  0.258E-04
 -12.300  0.290E-04  0.290E-04
 -12.290  0.326E-04  0.326E-04
 -12.280  0.362E-04  0.362E-04
 -12.270  0.393E-04  0.393E-04
 -12.260  0.415E-04  0.415E-04
 -12.250  0.424E-04  0.424E-04
 -12.240  0.419E-04  0.419E-04
 -12.230  0.403E-04  0.403E-04
 -12.220  0.377E-04  0.377E-04
 -12.210  0.347E-04  0.347E-04
 -12.200  0.318E-04  0.318E-04
 -12.190  0.292E-04  0.292E-04
 -12.180  0.272E-04  0.272E-04
 -12.170  0.259E-04  0.259E-04
 -12.160  0.253E-04  0.253E-04
 -12.150  0.251E-04  0.251E-04
 -12.140  0.254E-04  0.254E-04
 -12.130  0.260E-04  0.260E-04
 -12.120  0.270E-04  0.270E-04
 -12.110  0.283E-04  0.283E-04
 -12.100  0.301E-04  0.301E-04
 -12.090  0.324E-04  0.324E-04
 -12.080  0.349E-04  0.349E-04
 -12.070  0.376E-04  0.376E-04
 -12.060  0.401E-04  0.401E-04
 -12.050  0.420E-04  0.420E-04
 -12.040  0.431E-04  0.431E-04
 -12.030  0.431E-04  0.431E-04
 -12.020  0.420E-04  0.420E-04
 -12.010  0.398E-04  0.398E-04
 -12.000  0.368E-04  0.368E-04
 -11.990  0.333E-04  0.333E-04
 -11.980  0.298E-04  0.298E-04
 -11.970  0.267E-04  0.267E-04
 -11.960  0.242E-04  0.242E-04
 -11.950  0.227E-04  0.227E-04
 -11.940  0.222E-04  0.222E-04
 -11.930  0.228E-04  0.228E-04
 -11.920  0.244E-04  0.244E-04
 -11.910  0.269E-04  0.269E-04
 -11.900  0.302E-04  0.302E-04
 -11.890  0.339E-04  0.339E-04
 -11.880  0.377E-04  0.377E-04
 -11.870  0.412E-04  0.412E-04
 -11.860  0.439E-04  0.439E-04
 -11.850  0.456E-04  0.456E-04
 -11.840  0.460E-04  0.460E-04
 -11.830  0.450E-04  0.450E-04
 -11.820  0.429E-04  0.429E-04
 -11.810  0.399E-04  0.399E-04
 -11.800  0.365E-04  0.365E-04
 -11.790  0.329E-04  0.329E-04
 -11.780  0.295E-04  0.295E-04
 -11.770  0.266E-04  0.266E-04
 -11.760  0.245E-04  0.245E-04
 -11.750  0.232E-04  0.232E-04
 -11.740  0.229E-04  0.229E-04
 -11.730  0.236E-04  0.236E-04
 -11.720  0.253E-04  0.253E-04
 -11.710  0.278E-04  0.278E-04
 -11.700  0.309E-04  0.309E-04
 -11.690  0.344E-04  0.344E-04
 -11.680  0.379E-04  0.379E-04
 -11.670  0.411E-04  0.411E-04
 -11.660  0.436E-04  0.436E-04
 -11.650  0.451E-04  0.451E-04
 -11.640  0.455E-04  0.455E-04
 -11.630  0.447E-04  0.447E-04
 -11.620  0.429E-04  0.429E-04
 -11.610  0.403E-04  0.403E-04
 -11.600  0.373E-04  0.373E-04
 -11.590  0.343E-04  0.343E-04
 -11.580  0.315E-04  0.315E-04
 -11.570  0.293E-04  0.293E-04
 -11.560  0.275E-04  0.275E-04
 -11.550  0.264E-04  0.264E-04
 -11.540  0.258E-04  0.258E-04
 -11.530  0.258E-04  0.258E-04
 -11.520  0.263E-04  0.263E-04
 -11.510  0.274E-04  0.274E-04
 -11.500  0.291E-04  0.291E-04
 -11.490  0.314E-04  0.314E-04
 -11.480  0.341E-04  0.341E-04
 -11.470  0.370E-04  0.370E-04
 -11.460  0.398E-04  0.398E-04
 -11.450  0.422E-04  0.422E-04
 -11.440  0.440E-04  0.440E-04
 -11.430  0.448E-04  0.448E-04
 -11.420  0.447E-04  0.447E-04
 -11.410  0.437E-04  0.437E-04
 -11.400  0.418E-04  0.418E-04
 -11.390  0.394E-04  0.394E-04
 -11.380  0.366E-04  0.366E-04
 -11.370  0.338E-04  0.338E-04
 -11.360  0.315E-04  0.315E-04
 -11.350  0.302E-04  0.302E-04
 -11.340  0.313E-04  0.313E-04
 -11.330  0.374E-04  0.374E-04
 -11.320  0.538E-04  0.538E-04
 -11.310  0.908E-04  0.908E-04
 -11.300  0.168E-03  0.168E-03
 -11.290  0.319E-03  0.319E-03
 -11.280  0.603E-03  0.603E-03
 -11.270  0.111E-02  0.111E-02
 -11.260  0.198E-02  0.198E-02
 -11.250  0.339E-02  0.339E-02
 -11.240  0.561E-02  0.561E-02
 -11.230  0.890E-02  0.890E-02
 -11.220  0.136E-01  0.136E-01
 -11.210  0.199E-01  0.199E-01
 -11.200  0.281E-01  0.281E-01
 -11.190  0.381E-01  0.381E-01
 -11.180  0.498E-01  0.498E-01
 -11.170  0.627E-01  0.627E-01
 -11.160  0.762E-01  0.762E-01
 -11.150  0.895E-01  0.895E-01
 -11.140  0.102E+00  0.102E+00
 -11.130  0.112E+00  0.112E+00
 -11.120  0.121E+00  0.121E+00
 -11.110  0.127E+00  0.127E+00
 -11.100  0.130E+00  0.130E+00
 -11.090  0.132E+00  0.132E+00
 -11.080  0.131E+00  0.131E+00
 -11.070  0.130E+00  0.130E+00
 -11.060  0.128E+00  0.128E+00
 -11.050  0.126E+00  0.126E+00
 -11.040  0.125E+00  0.125E+00
 -11.030  0.123E+00  0.123E+00
 -11.020  0.122E+00  0.122E+00
 -11.010  0.121E+00  0.121E+00
 -11.000  0.120E+00  0.120E+00
 -10.990  0.119E+00  0.119E+00
 -10.980  0.119E+00  0.119E+00
 -10.970  0.118E+00  0.118E+00
 -10.960  0.118E+00  0.118E+00
 -10.950  0.118E+00  0.118E+00
 -10.940  0.118E+00  0.118E+00
 -10.930  0.117E+00  0.117E+00
 -10.920  0.117E+00  0.117E+00
 -10.910  0.116E+00  0.116E+00
 -10.900  0.116E+00  0.116E+00
 -10.890  0.115E+00  0.115E+00
 -10.880  0.116E+00  0.116E+00
 -10.870  0.116E+00  0.116E+00
 -10.860  0.117E+00  0.117E+00
 -10.850  0.117E+00  0.117E+00
 -10.840  0.116E+00  0.116E+00
 -10.830  0.115E+00  0.115E+00
 -10.820  0.114E+00  0.114E+00
 -10.810  0.112E+00  0.112E+00
 -10.800  0.112E+00  0.112E+00
 -10.790  0.112E+00  0.112E+00
 -10.780  0.113E+00  0.113E+00
 -10.770  0.114E+00  0.114E+00
 -10.760  0.115E+00  0.115E+00
 -10.750  0.116E+00  0.116E+00
 -10.740  0.115E+00  0.115E+00
 -10.730  0.114E+00  0.114E+00
 -10.720  0.111E+00  0.111E+00
 -10.710  0.109E+00  0.109E+00
 -10.700  0.108E+00  0.108E+00
 -10.690  0.107E+00  0.107E+00
 -10.680  0.108E+00  0.108E+00
 -10.670  0.110E+00  0.110E+00
 -10.660  0.112E+00  0.112E+00
 -10.650  0.114E+00  0.114E+00
 -10.640  0.114E+00  0.114E+00
 -10.630  0.114E+00  0.114E+00
 -10.620  0.112E+00  0.112E+00
 -10.610  0.109E+00  0.109E+00
 -10.600  0.106E+00  0.106E+00
 -10.590  0.105E+00  0.105E+00
 -10.580  0.104E+00  0.104E+00
 -10.570  0.105E+00  0.105E+00
 -10.560  0.107E+00  0.107E+00
 -10.550  0.110E+00  0.110E+00
 -10.540  0.112E+00  0.112E+00
 -10.530  0.112E+00  0.112E+00
 -10.520  0.112E+00  0.112E+00
 -10.510  0.110E+00  0.110E+00
 -10.500  0.108E+00  0.108E+00
 -10.490  0.105E+00  0.105E+00
 -10.480  0.103E+00  0.103E+00
 -10.470  0.103E+00  0.103E+00
 -10.460  0.103E+00  0.103E+00
 -10.450  0.105E+00  0.105E+00
 -10.440  0.107E+00  0.107E+00
 -10.430  0.110E+00  0.110E+00
 -10.420  0.111E+00  0.111E+00
 -10.410  0.111E+00  0.111E+00
 -10.400  0.110E+00  0.110E+00
 -10.390  0.109E+00  0.109E+00
 -10.380  0.107E+00  0.107E+00
 -10.370  0.106E+00  0.106E+00
 -10.360  0.106E+00  0.106E+00
 -10.350  0.107E+00  0.107E+00
 -10.340  0.109E+00  0.109E+00
 -10.330  0.112E+00  0.112E+00
 -10.320  0.114E+00  0.114E+00
 -10.310  0.116E+00  0.116E+00
 -10.300  0.115E+00  0.115E+00
 -10.290  0.113E+00  0.113E+00
 -10.280  0.109E+00  0.109E+00
 -10.270  0.103E+00  0.103E+00
 -10.260  0.971E-01  0.971E-01
 -10.250  0.910E-01  0.910E-01
 -10.240  0.858E-01  0.858E-01
 -10.230  0.817E-01  0.817E-01
 -10.220  0.791E-01  0.791E-01
 -10.210  0.779E-01  0.779E-01
 -10.200  0.776E-01  0.776E-01
 -10.190  0.777E-01  0.777E-01
 -10.180  0.778E-01  0.778E-01
 -10.170  0.772E-01  0.772E-01
 -10.160  0.757E-01  0.757E-01
 -10.150  0.733E-01  0.733E-01
 -10.140  0.703E-01  0.703E-01
 -10.130  0.671E-01  0.671E-01
 -10.120  0.641E-01  0.641E-01
 -10.110  0.620E-01  0.620E-01
 -10.100  0.610E-01  0.610E-01
 -10.090  0.612E-01  0.612E-01
 -10.080  0.625E-01  0.625E-01
 -10.070  0.644E-01  0.644E-01
 -10.060  0.666E-01  0.666E-01
 -10.050  0.683E-01  0.683E-01
 -10.040  0.692E-01  0.692E-01
 -10.030  0.689E-01  0.689E-01
 -10.020  0.673E-01  0.673E-01
 -10.010  0.646E-01  0.646E-01
 -10.000  0.613E-01  0.613E-01
  -9.990  0.577E-01  0.577E-01
  -9.980  0.546E-01  0.546E-01
  -9.970  0.523E-01  0.523E-01
  -9.960  0.512E-01  0.512E-01
  -9.950  0.516E-01  0.516E-01
  -9.940  0.533E-01  0.533E-01
  -9.930  0.560E-01  0.560E-01
  -9.920  0.590E-01  0.590E-01
  -9.910  0.618E-01  0.618E-01
  -9.900  0.635E-01  0.635E-01
  -9.890  0.637E-01  0.637E-01
  -9.880  0.623E-01  0.623E-01
  -9.870  0.593E-01  0.593E-01
  -9.860  0.552E-01  0.552E-01
  -9.850  0.507E-01  0.507E-01
  -9.840  0.468E-01  0.468E-01
  -9.830  0.441E-01  0.441E-01
  -9.820  0.431E-01  0.431E-01
  -9.810  0.438E-01  0.438E-01
  -9.800  0.461E-01  0.461E-01
  -9.790  0.494E-01  0.494E-01
  -9.780  0.529E-01  0.529E-01
  -9.770  0.560E-01  0.560E-01
  -9.760  0.580E-01  0.580E-01
  -9.750  0.586E-01  0.586E-01
  -9.740  0.576E-01  0.576E-01
  -9.730  0.553E-01  0.553E-01
  -9.720  0.521E-01  0.521E-01
  -9.710  0.485E-01  0.485E-01
  -9.700  0.450E-01  0.450E-01
  -9.690  0.421E-01  0.421E-01
  -9.680  0.401E-01  0.401E-01
  -9.670  0.391E-01  0.391E-01
  -9.660  0.392E-01  0.392E-01
  -9.650  0.402E-01  0.402E-01
  -9.640  0.421E-01  0.421E-01
  -9.630  0.445E-01  0.445E-01
  -9.620  0.472E-01  0.472E-01
  -9.610  0.500E-01  0.500E-01
  -9.600  0.522E-01  0.522E-01
  -9.590  0.537E-01  0.537E-01
  -9.580  0.541E-01  0.541E-01
  -9.570  0.531E-01  0.531E-01
  -9.560  0.507E-01  0.507E-01
  -9.550  0.472E-01  0.472E-01
  -9.540  0.429E-01  0.429E-01
  -9.530  0.384E-01  0.384E-01
  -9.520  0.343E-01  0.343E-01
  -9.510  0.313E-01  0.313E-01
  -9.500  0.300E-01  0.300E-01
  -9.490  0.307E-01  0.307E-01
  -9.480  0.335E-01  0.335E-01
  -9.470  0.381E-01  0.381E-01
  -9.460  0.441E-01  0.441E-01
  -9.450  0.507E-01  0.507E-01
  -9.440  0.570E-01  0.570E-01
  -9.430  0.622E-01  0.622E-01
  -9.420  0.658E-01  0.658E-01
  -9.410  0.674E-01  0.674E-01
  -9.400  0.670E-01  0.670E-01
  -9.390  0.650E-01  0.650E-01
  -9.380  0.619E-01  0.619E-01
  -9.370  0.586E-01  0.586E-01
  -9.360  0.559E-01  0.559E-01
  -9.350  0.546E-01  0.546E-01
  -9.340  0.551E-01  0.551E-01
  -9.330  0.580E-01  0.580E-01
  -9.320  0.629E-01  0.629E-01
  -9.310  0.694E-01  0.694E-01
  -9.300  0.766E-01  0.766E-01
  -9.290  0.832E-01  0.832E-01
  -9.280  0.881E-01  0.881E-01
  -9.270  0.904E-01  0.904E-01
  -9.260  0.895E-01  0.895E-01
  -9.250  0.855E-01  0.855E-01
  -9.240  0.792E-01  0.792E-01
  -9.230  0.715E-01  0.715E-01
  -9.220  0.639E-01  0.639E-01
  -9.210  0.577E-01  0.577E-01
  -9.200  0.538E-01  0.538E-01
  -9.190  0.528E-01  0.528E-01
  -9.180  0.548E-01  0.548E-01
  -9.170  0.592E-01  0.592E-01
  -9.160  0.654E-01  0.654E-01
  -9.150  0.722E-01  0.722E-01
  -9.140  0.785E-01  0.785E-01
  -9.130  0.834E-01  0.834E-01
  -9.120  0.860E-01  0.860E-01
  -9.110  0.857E-01  0.857E-01
  -9.100  0.827E-01  0.827E-01
  -9.090  0.773E-01  0.773E-01
  -9.080  0.704E-01  0.704E-01
  -9.070  0.630E-01  0.630E-01
  -9.060  0.563E-01  0.563E-01
  -9.050  0.514E-01  0.514E-01
  -9.040  0.489E-01  0.489E-01
  -9.030  0.493E-01  0.493E-01
  -9.020  0.525E-01  0.525E-01
  -9.010  0.582E-01  0.582E-01
  -9.000  0.655E-01  0.655E-01
  -8.990  0.736E-01  0.736E-01
  -8.980  0.813E-01  0.813E-01
  -8.970  0.876E-01  0.876E-01
  -8.960  0.913E-01  0.913E-01
  -8.950  0.918E-01  0.918E-01
  -8.940  0.886E-01  0.886E-01
  -8.930  0.822E-01  0.822E-01
  -8.920  0.732E-01  0.732E-01
  -8.910  0.630E-01  0.630E-01
  -8.900  0.529E-01  0.529E-01
  -8.890  0.444E-01  0.444E-01
  -8.880  0.387E-01  0.387E-01
  -8.870  0.366E-01  0.366E-01
  -8.860  0.383E-01  0.383E-01
  -8.850  0.435E-01  0.435E-01
  -8.840  0.516E-01  0.516E-01
  -8.830  0.617E-01  0.617E-01
  -8.820  0.726E-01  0.726E-01
  -8.810  0.830E-01  0.830E-01
  -8.800  0.916E-01  0.916E-01
  -8.790  0.971E-01  0.971E-01
  -8.780  0.987E-01  0.987E-01
  -8.770  0.961E-01  0.961E-01
  -8.760  0.894E-01  0.894E-01
  -8.750  0.794E-01  0.794E-01
  -8.740  0.675E-01  0.675E-01
  -8.730  0.553E-01  0.553E-01
  -8.720  0.445E-01  0.445E-01
  -8.710  0.365E-01  0.365E-01
  -8.700  0.321E-01  0.321E-01
  -8.690  0.319E-01  0.319E-01
  -8.680  0.354E-01  0.354E-01
  -8.670  0.422E-01  0.422E-01
  -8.660  0.512E-01  0.512E-01
  -8.650  0.613E-01  0.613E-01
  -8.640  0.712E-01  0.712E-01
  -8.630  0.798E-01  0.798E-01
  -8.620  0.862E-01  0.862E-01
  -8.610  0.898E-01  0.898E-01
  -8.600  0.902E-01  0.902E-01
  -8.590  0.874E-01  0.874E-01
  -8.580  0.820E-01  0.820E-01
  -8.570  0.747E-01  0.747E-01
  -8.560  0.665E-01  0.665E-01
  -8.550  0.583E-01  0.583E-01
  -8.540  0.512E-01  0.512E-01
  -8.530  0.460E-01  0.460E-01
  -8.520  0.430E-01  0.430E-01
  -8.510  0.426E-01  0.426E-01
  -8.500  0.445E-01  0.445E-01
  -8.490  0.484E-01  0.484E-01
  -8.480  0.536E-01  0.536E-01
  -8.470  0.594E-01  0.594E-01
  -8.460  0.649E-01  0.649E-01
  -8.450  0.695E-01  0.695E-01
  -8.440  0.724E-01  0.724E-01
  -8.430  0.734E-01  0.734E-01
  -8.420  0.726E-01  0.726E-01
  -8.410  0.701E-01  0.701E-01
  -8.400  0.666E-01  0.666E-01
  -8.390  0.627E-01  0.627E-01
  -8.380  0.590E-01  0.590E-01
  -8.370  0.561E-01  0.561E-01
  -8.360  0.543E-01  0.543E-01
  -8.350  0.537E-01  0.537E-01
  -8.340  0.543E-01  0.543E-01
  -8.330  0.560E-01  0.560E-01
  -8.320  0.584E-01  0.584E-01
  -8.310  0.612E-01  0.612E-01
  -8.300  0.640E-01  0.640E-01
  -8.290  0.662E-01  0.662E-01
  -8.280  0.675E-01  0.675E-01
  -8.270  0.676E-01  0.676E-01
  -8.260  0.663E-01  0.663E-01
  -8.250  0.638E-01  0.638E-01
  -8.240  0.602E-01  0.602E-01
  -8.230  0.562E-01  0.562E-01
  -8.220  0.522E-01  0.522E-01
  -8.210  0.490E-01  0.490E-01
  -8.200  0.468E-01  0.468E-01
  -8.190  0.462E-01  0.462E-01
  -8.180  0.471E-01  0.471E-01
  -8.170  0.496E-01  0.496E-01
  -8.160  0.532E-01  0.532E-01
  -8.150  0.575E-01  0.575E-01
  -8.140  0.621E-01  0.621E-01
  -8.130  0.664E-01  0.664E-01
  -8.120  0.698E-01  0.698E-01
  -8.110  0.720E-01  0.720E-01
  -8.100  0.725E-01  0.725E-01
  -8.090  0.713E-01  0.713E-01
  -8.080  0.685E-01  0.685E-01
  -8.070  0.643E-01  0.643E-01
  -8.060  0.592E-01  0.592E-01
  -8.050  0.538E-01  0.538E-01
  -8.040  0.487E-01  0.487E-01
  -8.030  0.446E-01  0.446E-01
  -8.020  0.419E-01  0.419E-01
  -8.010  0.409E-01  0.409E-01
  -8.000  0.416E-01  0.416E-01
  -7.990  0.440E-01  0.440E-01
  -7.980  0.476E-01  0.476E-01
  -7.970  0.520E-01  0.520E-01
  -7.960  0.569E-01  0.569E-01
  -7.950  0.616E-01  0.616E-01
  -7.940  0.658E-01  0.658E-01
  -7.930  0.689E-01  0.689E-01
  -7.920  0.708E-01  0.708E-01
  -7.910  0.711E-01  0.711E-01
  -7.900  0.696E-01  0.696E-01
  -7.890  0.664E-01  0.664E-01
  -7.880  0.617E-01  0.617E-01
  -7.870  0.560E-01  0.560E-01
  -7.860  0.497E-01  0.497E-01
  -7.850  0.439E-01  0.439E-01
  -7.840  0.392E-01  0.392E-01
  -7.830  0.363E-01  0.363E-01
  -7.820  0.358E-01  0.358E-01
  -7.810  0.376E-01  0.376E-01
  -7.800  0.415E-01  0.415E-01
  -7.790  0.470E-01  0.470E-01
  -7.780  0.533E-01  0.533E-01
  -7.770  0.596E-01  0.596E-01
  -7.760  0.650E-01  0.650E-01
  -7.750  0.690E-01  0.690E-01
  -7.740  0.710E-01  0.710E-01
  -7.730  0.710E-01  0.710E-01
  -7.720  0.691E-01  0.691E-01
  -7.710  0.655E-01  0.655E-01
  -7.700  0.608E-01  0.608E-01
  -7.690  0.555E-01  0.555E-01
  -7.680  0.503E-01  0.503E-01
  -7.670  0.455E-01  0.455E-01
  -7.660  0.414E-01  0.414E-01
  -7.650  0.383E-01  0.383E-01
  -7.640  0.363E-01  0.363E-01
  -7.630  0.355E-01  0.355E-01
  -7.620  0.359E-01  0.359E-01
  -7.610  0.377E-01  0.377E-01
  -7.600  0.408E-01  0.408E-01
  -7.590  0.452E-01  0.452E-01
  -7.580  0.506E-01  0.506E-01
  -7.570  0.565E-01  0.565E-01
  -7.560  0.621E-01  0.621E-01
  -7.550  0.667E-01  0.667E-01
  -7.540  0.696E-01  0.696E-01
  -7.530  0.703E-01  0.703E-01
  -7.520  0.687E-01  0.687E-01
  -7.510  0.650E-01  0.650E-01
  -7.500  0.597E-01  0.597E-01
  -7.490  0.535E-01  0.535E-01
  -7.480  0.472E-01  0.472E-01
  -7.470  0.417E-01  0.417E-01
  -7.460  0.375E-01  0.375E-01
  -7.450  0.351E-01  0.351E-01
  -7.440  0.345E-01  0.345E-01
  -7.430  0.356E-01  0.356E-01
  -7.420  0.379E-01  0.379E-01
  -7.410  0.411E-01  0.411E-01
  -7.400  0.446E-01  0.446E-01
  -7.390  0.480E-01  0.480E-01
  -7.380  0.510E-01  0.510E-01
  -7.370  0.535E-01  0.535E-01
  -7.360  0.551E-01  0.551E-01
  -7.350  0.560E-01  0.560E-01
  -7.340  0.560E-01  0.560E-01
  -7.330  0.555E-01  0.555E-01
  -7.320  0.543E-01  0.543E-01
  -7.310  0.528E-01  0.528E-01
  -7.300  0.510E-01  0.510E-01
  -7.290  0.492E-01  0.492E-01
  -7.280  0.475E-01  0.475E-01
  -7.270  0.460E-01  0.460E-01
  -7.260  0.448E-01  0.448E-01
  -7.250  0.441E-01  0.441E-01
  -7.240  0.439E-01  0.439E-01
  -7.230  0.441E-01  0.441E-01
  -7.220  0.449E-01  0.449E-01
  -7.210  0.460E-01  0.460E-01
  -7.200  0.474E-01  0.474E-01
  -7.190  0.488E-01  0.488E-01
  -7.180  0.501E-01  0.501E-01
  -7.170  0.509E-01  0.509E-01
  -7.160  0.511E-01  0.511E-01
  -7.150  0.507E-01  0.507E-01
  -7.140  0.497E-01  0.497E-01
  -7.130  0.482E-01  0.482E-01
  -7.120  0.463E-01  0.463E-01
  -7.110  0.443E-01  0.443E-01
  -7.100  0.423E-01  0.423E-01
  -7.090  0.405E-01  0.405E-01
  -7.080  0.388E-01  0.388E-01
  -7.070  0.373E-01  0.373E-01
  -7.060  0.360E-01  0.360E-01
  -7.050  0.348E-01  0.348E-01
  -7.040  0.337E-01  0.337E-01
  -7.030  0.327E-01  0.327E-01
  -7.020  0.320E-01  0.320E-01
  -7.010  0.318E-01  0.318E-01
  -7.000  0.322E-01  0.322E-01
  -6.990  0.333E-01  0.333E-01
  -6.980  0.352E-01  0.352E-01
  -6.970  0.377E-01  0.377E-01
  -6.960  0.407E-01  0.407E-01
  -6.950  0.436E-01  0.436E-01
  -6.940  0.460E-01  0.460E-01
  -6.930  0.476E-01  0.476E-01
  -6.920  0.479E-01  0.479E-01
  -6.910  0.471E-01  0.471E-01
  -6.900  0.452E-01  0.452E-01
  -6.890  0.427E-01  0.427E-01
  -6.880  0.400E-01  0.400E-01
  -6.870  0.376E-01  0.376E-01
  -6.860  0.360E-01  0.360E-01
  -6.850  0.356E-01  0.356E-01
  -6.840  0.363E-01  0.363E-01
  -6.830  0.380E-01  0.380E-01
  -6.820  0.406E-01  0.406E-01
  -6.810  0.434E-01  0.434E-01
  -6.800  0.461E-01  0.461E-01
  -6.790  0.482E-01  0.482E-01
  -6.780  0.494E-01  0.494E-01
  -6.770  0.494E-01  0.494E-01
  -6.760  0.483E-01  0.483E-01
  -6.750  0.464E-01  0.464E-01
  -6.740  0.439E-01  0.439E-01
  -6.730  0.413E-01  0.413E-01
  -6.720  0.389E-01  0.389E-01
  -6.710  0.371E-01  0.371E-01
  -6.700  0.360E-01  0.360E-01
  -6.690  0.356E-01  0.356E-01
  -6.680  0.357E-01  0.357E-01
  -6.670  0.362E-01  0.362E-01
  -6.660  0.367E-01  0.367E-01
  -6.650  0.371E-01  0.371E-01
  -6.640  0.373E-01  0.373E-01
  -6.630  0.374E-01  0.374E-01
  -6.620  0.375E-01  0.375E-01
  -6.610  0.376E-01  0.376E-01
  -6.600  0.379E-01  0.379E-01
  -6.590  0.381E-01  0.381E-01
  -6.580  0.382E-01  0.382E-01
  -6.570  0.379E-01  0.379E-01
  -6.560  0.372E-01  0.372E-01
  -6.550  0.360E-01  0.360E-01
  -6.540  0.344E-01  0.344E-01
  -6.530  0.326E-01  0.326E-01
  -6.520  0.309E-01  0.309E-01
  -6.510  0.296E-01  0.296E-01
  -6.500  0.290E-01  0.290E-01
  -6.490  0.291E-01  0.291E-01
  -6.480  0.300E-01  0.300E-01
  -6.470  0.314E-01  0.314E-01
  -6.460  0.331E-01  0.331E-01
  -6.450  0.348E-01  0.348E-01
  -6.440  0.361E-01  0.361E-01
  -6.430  0.369E-01  0.369E-01
  -6.420  0.371E-01  0.371E-01
  -6.410  0.367E-01  0.367E-01
  -6.400  0.358E-01  0.358E-01
  -6.390  0.345E-01  0.345E-01
  -6.380  0.332E-01  0.332E-01
  -6.370  0.318E-01  0.318E-01
  -6.360  0.306E-01  0.306E-01
  -6.350  0.294E-01  0.294E-01
  -6.340  0.283E-01  0.283E-01
  -6.330  0.273E-01  0.273E-01
  -6.320  0.263E-01  0.263E-01
  -6.310  0.253E-01  0.253E-01
  -6.300  0.244E-01  0.244E-01
  -6.290  0.235E-01  0.235E-01
  -6.280  0.227E-01  0.227E-01
  -6.270  0.219E-01  0.219E-01
  -6.260  0.213E-01  0.213E-01
  -6.250  0.209E-01  0.209E-01
  -6.240  0.208E-01  0.208E-01
  -6.230  0.209E-01  0.209E-01
  -6.220  0.214E-01  0.214E-01
  -6.210  0.222E-01  0.222E-01
  -6.200  0.232E-01  0.232E-01
  -6.190  0.244E-01  0.244E-01
  -6.180  0.257E-01  0.257E-01
  -6.170  0.269E-01  0.269E-01
  -6.160  0.280E-01  0.280E-01
  -6.150  0.289E-01  0.289E-01
  -6.140  0.296E-01  0.296E-01
  -6.130  0.299E-01  0.299E-01
  -6.120  0.300E-01  0.300E-01
  -6.110  0.297E-01  0.297E-01
  -6.100  0.291E-01  0.291E-01
  -6.090  0.282E-01  0.282E-01
  -6.080  0.269E-01  0.269E-01
  -6.070  0.253E-01  0.253E-01
  -6.060  0.236E-01  0.236E-01
  -6.050  0.218E-01  0.218E-01
  -6.040  0.202E-01  0.202E-01
  -6.030  0.189E-01  0.189E-01
  -6.020  0.180E-01  0.180E-01
  -6.010  0.176E-01  0.176E-01
  -6.000  0.177E-01  0.177E-01
  -5.990  0.183E-01  0.183E-01
  -5.980  0.193E-01  0.193E-01
  -5.970  0.204E-01  0.204E-01
  -5.960  0.216E-01  0.216E-01
  -5.950  0.228E-01  0.228E-01
  -5.940  0.237E-01  0.237E-01
  -5.930  0.245E-01  0.245E-01
  -5.920  0.251E-01  0.251E-01
  -5.910  0.254E-01  0.254E-01
  -5.900  0.254E-01  0.254E-01
  -5.890  0.252E-01  0.252E-01
  -5.880  0.246E-01  0.246E-01
  -5.870  0.237E-01  0.237E-01
  -5.860  0.224E-01  0.224E-01
  -5.850  0.210E-01  0.210E-01
  -5.840  0.194E-01  0.194E-01
  -5.830  0.180E-01  0.180E-01
  -5.820  0.169E-01  0.169E-01
  -5.810  0.162E-01  0.162E-01
  -5.800  0.161E-01  0.161E-01
  -5.790  0.165E-01  0.165E-01
  -5.780  0.173E-01  0.173E-01
  -5.770  0.182E-01  0.182E-01
  -5.760  0.192E-01  0.192E-01
  -5.750  0.200E-01  0.200E-01
  -5.740  0.204E-01  0.204E-01
  -5.730  0.205E-01  0.205E-01
  -5.720  0.201E-01  0.201E-01
  -5.710  0.194E-01  0.194E-01
  -5.700  0.184E-01  0.184E-01
  -5.690  0.173E-01  0.173E-01
  -5.680  0.161E-01  0.161E-01
  -5.670  0.151E-01  0.151E-01
  -5.660  0.142E-01  0.142E-01
  -5.650  0.137E-01  0.137E-01
  -5.640  0.136E-01  0.136E-01
  -5.630  0.140E-01  0.140E-01
  -5.620  0.149E-01  0.149E-01
  -5.610  0.163E-01  0.163E-01
  -5.600  0.181E-01  0.181E-01
  -5.590  0.199E-01  0.199E-01
  -5.580  0.216E-01  0.216E-01
  -5.570  0.228E-01  0.228E-01
  -5.560  0.234E-01  0.234E-01
  -5.550  0.230E-01  0.230E-01
  -5.540  0.218E-01  0.218E-01
  -5.530  0.198E-01  0.198E-01
  -5.520  0.173E-01  0.173E-01
  -5.510  0.147E-01  0.147E-01
  -5.500  0.123E-01  0.123E-01
  -5.490  0.103E-01  0.103E-01
  -5.480  0.903E-02  0.903E-02
  -5.470  0.845E-02  0.845E-02
  -5.460  0.855E-02  0.855E-02
  -5.450  0.921E-02  0.921E-02
  -5.440  0.103E-01  0.103E-01
  -5.430  0.116E-01  0.116E-01
  -5.420  0.130E-01  0.130E-01
  -5.410  0.145E-01  0.145E-01
  -5.400  0.159E-01  0.159E-01
  -5.390  0.171E-01  0.171E-01
  -5.380  0.181E-01  0.181E-01
  -5.370  0.187E-01  0.187E-01
  -5.360  0.190E-01  0.190E-01
  -5.350  0.188E-01  0.188E-01
  -5.340  0.182E-01  0.182E-01
  -5.330  0.173E-01  0.173E-01
  -5.320  0.160E-01  0.160E-01
  -5.310  0.147E-01  0.147E-01
  -5.300  0.133E-01  0.133E-01
  -5.290  0.121E-01  0.121E-01
  -5.280  0.112E-01  0.112E-01
  -5.270  0.104E-01  0.104E-01
  -5.260  0.100E-01  0.100E-01
  -5.250  0.980E-02  0.980E-02
  -5.240  0.982E-02  0.982E-02
  -5.230  0.100E-01  0.100E-01
  -5.220  0.103E-01  0.103E-01
  -5.210  0.107E-01  0.107E-01
  -5.200  0.112E-01  0.112E-01
  -5.190  0.116E-01  0.116E-01
  -5.180  0.120E-01  0.120E-01
  -5.170  0.123E-01  0.123E-01
  -5.160  0.126E-01  0.126E-01
  -5.150  0.126E-01  0.126E-01
  -5.140  0.126E-01  0.126E-01
  -5.130  0.124E-01  0.124E-01
  -5.120  0.122E-01  0.122E-01
  -5.110  0.119E-01  0.119E-01
  -5.100  0.117E-01  0.117E-01
  -5.090  0.116E-01  0.116E-01
  -5.080  0.115E-01  0.115E-01
  -5.070  0.115E-01  0.115E-01
  -5.060  0.116E-01  0.116E-01
  -5.050  0.116E-01  0.116E-01
  -5.040  0.115E-01  0.115E-01
  -5.030  0.113E-01  0.113E-01
  -5.020  0.110E-01  0.110E-01
  -5.010  0.107E-01  0.107E-01
  -5.000  0.104E-01  0.104E-01
  -4.990  0.101E-01  0.101E-01
  -4.980  0.976E-02  0.976E-02
  -4.970  0.946E-02  0.946E-02
  -4.960  0.913E-02  0.913E-02
  -4.950  0.877E-02  0.877E-02
  -4.940  0.835E-02  0.835E-02
  -4.930  0.791E-02  0.791E-02
  -4.920  0.749E-02  0.749E-02
  -4.910  0.718E-02  0.718E-02
  -4.900  0.705E-02  0.705E-02
  -4.890  0.717E-02  0.717E-02
  -4.880  0.756E-02  0.756E-02
  -4.870  0.823E-02  0.823E-02
  -4.860  0.912E-02  0.912E-02
  -4.850  0.101E-01  0.101E-01
  -4.840  0.111E-01  0.111E-01
  -4.830  0.119E-01  0.119E-01
  -4.820  0.123E-01  0.123E-01
  -4.810  0.124E-01  0.124E-01
  -4.800  0.120E-01  0.120E-01
  -4.790  0.112E-01  0.112E-01
  -4.780  0.999E-02  0.999E-02
  -4.770  0.858E-02  0.858E-02
  -4.760  0.712E-02  0.712E-02
  -4.750  0.576E-02  0.576E-02
  -4.740  0.465E-02  0.465E-02
  -4.730  0.391E-02  0.391E-02
  -4.720  0.361E-02  0.361E-02
  -4.710  0.378E-02  0.378E-02
  -4.700  0.437E-02  0.437E-02
  -4.690  0.529E-02  0.529E-02
  -4.680  0.641E-02  0.641E-02
  -4.670  0.756E-02  0.756E-02
  -4.660  0.857E-02  0.857E-02
  -4.650  0.931E-02  0.931E-02
  -4.640  0.969E-02  0.969E-02
  -4.630  0.969E-02  0.969E-02
  -4.620  0.935E-02  0.935E-02
  -4.610  0.875E-02  0.875E-02
  -4.600  0.799E-02  0.799E-02
  -4.590  0.719E-02  0.719E-02
  -4.580  0.645E-02  0.645E-02
  -4.570  0.584E-02  0.584E-02
  -4.560  0.541E-02  0.541E-02
  -4.550  0.519E-02  0.519E-02
  -4.540  0.516E-02  0.516E-02
  -4.530  0.529E-02  0.529E-02
  -4.520  0.551E-02  0.551E-02
  -4.510  0.574E-02  0.574E-02
  -4.500  0.589E-02  0.589E-02
  -4.490  0.590E-02  0.590E-02
  -4.480  0.574E-02  0.574E-02
  -4.470  0.542E-02  0.542E-02
  -4.460  0.500E-02  0.500E-02
  -4.450  0.460E-02  0.460E-02
  -4.440  0.430E-02  0.430E-02
  -4.430  0.419E-02  0.419E-02
  -4.420  0.432E-02  0.432E-02
  -4.410  0.468E-02  0.468E-02
  -4.400  0.520E-02  0.520E-02
  -4.390  0.577E-02  0.577E-02
  -4.380  0.629E-02  0.629E-02
  -4.370  0.664E-02  0.664E-02
  -4.360  0.674E-02  0.674E-02
  -4.350  0.654E-02  0.654E-02
  -4.340  0.606E-02  0.606E-02
  -4.330  0.536E-02  0.536E-02
  -4.320  0.454E-02  0.454E-02
  -4.310  0.373E-02  0.373E-02
  -4.300  0.305E-02  0.305E-02
  -4.290  0.257E-02  0.257E-02
  -4.280  0.236E-02  0.236E-02
  -4.270  0.242E-02  0.242E-02
  -4.260  0.268E-02  0.268E-02
  -4.250  0.309E-02  0.309E-02
  -4.240  0.355E-02  0.355E-02
  -4.230  0.398E-02  0.398E-02
  -4.220  0.433E-02  0.433E-02
  -4.210  0.456E-02  0.456E-02
  -4.200  0.466E-02  0.466E-02
  -4.190  0.463E-02  0.463E-02
  -4.180  0.449E-02  0.449E-02
  -4.170  0.426E-02  0.426E-02
  -4.160  0.397E-02  0.397E-02
  -4.150  0.363E-02  0.363E-02
  -4.140  0.328E-02  0.328E-02
  -4.130  0.294E-02  0.294E-02
  -4.120  0.264E-02  0.264E-02
  -4.110  0.240E-02  0.240E-02
  -4.100  0.223E-02  0.223E-02
  -4.090  0.214E-02  0.214E-02
  -4.080  0.214E-02  0.214E-02
  -4.070  0.220E-02  0.220E-02
  -4.060  0.233E-02  0.233E-02
  -4.050  0.248E-02  0.248E-02
  -4.040  0.263E-02  0.263E-02
  -4.030  0.276E-02  0.276E-02
  -4.020  0.284E-02  0.284E-02
  -4.010  0.287E-02  0.287E-02
  -4.000  0.282E-02  0.282E-02
  -3.990  0.271E-02  0.271E-02
  -3.980  0.254E-02  0.254E-02
  -3.970  0.233E-02  0.233E-02
  -3.960  0.209E-02  0.209E-02
  -3.950  0.186E-02  0.186E-02
  -3.940  0.165E-02  0.165E-02
  -3.930  0.149E-02  0.149E-02
  -3.920  0.139E-02  0.139E-02
  -3.910  0.135E-02  0.135E-02
  -3.900  0.138E-02  0.138E-02
  -3.890  0.145E-02  0.145E-02
  -3.880  0.154E-02  0.154E-02
  -3.870  0.162E-02  0.162E-02
  -3.860  0.167E-02  0.167E-02
  -3.850  0.166E-02  0.166E-02
  -3.840  0.160E-02  0.160E-02
  -3.830  0.149E-02  0.149E-02
  -3.820  0.134E-02  0.134E-02
  -3.810  0.117E-02  0.117E-02
  -3.800  0.102E-02  0.102E-02
  -3.790  0.903E-03  0.903E-03
  -3.780  0.823E-03  0.823E-03
  -3.770  0.783E-03  0.783E-03
  -3.760  0.772E-03  0.772E-03
  -3.750  0.776E-03  0.776E-03
  -3.740  0.780E-03  0.780E-03
  -3.730  0.769E-03  0.769E-03
  -3.720  0.738E-03  0.738E-03
  -3.710  0.687E-03  0.687E-03
  -3.700  0.619E-03  0.619E-03
  -3.690  0.543E-03  0.543E-03
  -3.680  0.466E-03  0.466E-03
  -3.670  0.396E-03  0.396E-03
  -3.660  0.336E-03  0.336E-03
  -3.650  0.287E-03  0.287E-03
  -3.640  0.246E-03  0.246E-03
  -3.630  0.210E-03  0.210E-03
  -3.620  0.176E-03  0.176E-03
  -3.610  0.142E-03  0.142E-03
  -3.600  0.108E-03  0.108E-03
  -3.590  0.757E-04  0.757E-04
  -3.580  0.459E-04  0.459E-04
  -3.570  0.206E-04  0.206E-04
  -3.560  0.103E-05  0.103E-05
  -3.550 -0.126E-04 -0.126E-04
  -3.540 -0.206E-04 -0.206E-04
  -3.530 -0.240E-04 -0.240E-04
  -3.520 -0.239E-04 -0.239E-04
  -3.510 -0.216E-04 -0.216E-04
  -3.500 -0.180E-04 -0.180E-04
  -3.490 -0.140E-04 -0.140E-04
  -3.480 -0.102E-04 -0.102E-04
  -3.470 -0.684E-05 -0.684E-05
  -3.460 -0.411E-05 -0.411E-05
  -3.450 -0.202E-05 -0.202E-05
  -3.440 -0.509E-06 -0.509E-06
  -3.430  0.519E-06  0.519E-06
  -3.420  0.119E-05  0.119E-05
  -3.410  0.160E-05  0.160E-05
  -3.400  0.186E-05  0.186E-05
  -3.390  0.201E-05  0.201E-05
  -3.380  0.212E-05  0.212E-05
  -3.370  0.220E-05  0.220E-05
  -3.360  0.228E-05  0.228E-05
  -3.350  0.236E-05  0.236E-05
  -3.340  0.244E-05  0.244E-05
  -3.330  0.252E-05  0.252E-05
  -3.320  0.260E-05  0.260E-05
  -3.310  0.266E-05  0.266E-05
  -3.300  0.270E-05  0.270E-05
  -3.290  0.270E-05  0.270E-05
  -3.280  0.267E-05  0.267E-05
  -3.270  0.260E-05  0.260E-05
  -3.260  0.250E-05  0.250E-05
  -3.250  0.237E-05  0.237E-05
  -3.240  0.221E-05  0.221E-05
  -3.230  0.206E-05  0.206E-05
  -3.220  0.190E-05  0.190E-05
  -3.210  0.176E-05  0.176E-05
  -3.200  0.163E-05  0.163E-05
  -3.190  0.153E-05  0.153E-05
  -3.180  0.143E-05  0.143E-05
  -3.170  0.135E-05  0.135E-05
  -3.160  0.126E-05  0.126E-05
  -3.150  0.117E-05  0.117E-05
  -3.140  0.107E-05  0.107E-05
  -3.130  0.974E-06  0.974E-06
  -3.120  0.882E-06  0.882E-06
  -3.110  0.810E-06  0.810E-06
  -3.100  0.767E-06  0.767E-06
  -3.090  0.759E-06  0.759E-06
  -3.080  0.786E-06  0.786E-06
  -3.070  0.843E-06  0.843E-06
  -3.060  0.918E-06  0.918E-06
  -3.050  0.995E-06  0.995E-06
  -3.040  0.106E-05  0.106E-05
  -3.030  0.110E-05  0.110E-05
  -3.020  0.109E-05  0.109E-05
  -3.010  0.105E-05  0.105E-05
  -3.000  0.970E-06  0.970E-06
  -2.990  0.859E-06  0.859E-06
  -2.980  0.733E-06  0.733E-06
  -2.970  0.608E-06  0.608E-06
  -2.960  0.500E-06  0.500E-06
  -2.950  0.420E-06  0.420E-06
  -2.940  0.375E-06  0.375E-06
  -2.930  0.364E-06  0.364E-06
  -2.920  0.383E-06  0.383E-06
  -2.910  0.425E-06  0.425E-06
  -2.900  0.481E-06  0.481E-06
  -2.890  0.543E-06  0.543E-06
  -2.880  0.607E-06  0.607E-06
  -2.870  0.667E-06  0.667E-06
  -2.860  0.723E-06  0.723E-06
  -2.850  0.770E-06  0.770E-06
  -2.840  0.807E-06  0.807E-06
  -2.830  0.830E-06  0.830E-06
  -2.820  0.837E-06  0.837E-06
  -2.810  0.826E-06  0.826E-06
  -2.800  0.799E-06  0.799E-06
  -2.790  0.758E-06  0.758E-06
  -2.780  0.711E-06  0.711E-06
  -2.770  0.664E-06  0.664E-06
  -2.760  0.625E-06  0.625E-06
  -2.750  0.599E-06  0.599E-06
  -2.740  0.590E-06  0.590E-06
  -2.730  0.596E-06  0.596E-06
  -2.720  0.616E-06  0.616E-06
  -2.710  0.644E-06  0.644E-06
  -2.700  0.675E-06  0.675E-06
  -2.690  0.705E-06  0.705E-06
  -2.680  0.732E-06  0.732E-06
  -2.670  0.755E-06  0.755E-06
  -2.660  0.772E-06  0.772E-06
  -2.650  0.786E-06  0.786E-06
  -2.640  0.798E-06  0.798E-06
  -2.630  0.807E-06  0.807E-06
  -2.620  0.814E-06  0.814E-06
  -2.610  0.819E-06  0.819E-06
  -2.600  0.823E-06  0.823E-06
  -2.590  0.829E-06  0.829E-06
  -2.580  0.840E-06  0.840E-06
  -2.570  0.859E-06  0.859E-06
  -2.560  0.890E-06  0.890E-06
  -2.550  0.934E-06  0.934E-06
  -2.540  0.988E-06  0.988E-06
  -2.530  0.105E-05  0.105E-05
  -2.520  0.110E-05  0.110E-05
  -2.510  0.115E-05  0.115E-05
  -2.500  0.117E-05  0.117E-05
  -2.490  0.116E-05  0.116E-05
  -2.480  0.113E-05  0.113E-05
  -2.470  0.107E-05  0.107E-05
  -2.460  0.100E-05  0.100E-05
  -2.450  0.922E-06  0.922E-06
  -2.440  0.853E-06  0.853E-06
  -2.430  0.807E-06  0.807E-06
  -2.420  0.793E-06  0.793E-06
  -2.410  0.816E-06  0.816E-06
  -2.400  0.877E-06  0.877E-06
  -2.390  0.968E-06  0.968E-06
  -2.380  0.108E-05  0.108E-05
  -2.370  0.120E-05  0.120E-05
  -2.360  0.132E-05  0.132E-05
  -2.350  0.143E-05  0.143E-05
  -2.340  0.152E-05  0.152E-05
  -2.330  0.158E-05  0.158E-05
  -2.320  0.161E-05  0.161E-05
  -2.310  0.162E-05  0.162E-05
  -2.300  0.160E-05  0.160E-05
  -2.290  0.155E-05  0.155E-05
  -2.280  0.148E-05  0.148E-05
  -2.270  0.139E-05  0.139E-05
  -2.260  0.131E-05  0.131E-05
  -2.250  0.122E-05  0.122E-05
  -2.240  0.116E-05  0.116E-05
  -2.230  0.112E-05  0.112E-05
  -2.220  0.110E-05  0.110E-05
  -2.210  0.111E-05  0.111E-05
  -2.200  0.114E-05  0.114E-05
  -2.190  0.118E-05  0.118E-05
  -2.180  0.122E-05  0.122E-05
  -2.170  0.128E-05  0.128E-05
  -2.160  0.135E-05  0.135E-05
  -2.150  0.144E-05  0.144E-05
  -2.140  0.157E-05  0.157E-05
  -2.130  0.173E-05  0.173E-05
  -2.120  0.191E-05  0.191E-05
  -2.110  0.210E-05  0.210E-05
  -2.100  0.227E-05  0.227E-05
  -2.090  0.240E-05  0.240E-05
  -2.080  0.245E-05  0.245E-05
  -2.070  0.242E-05  0.242E-05
  -2.060  0.230E-05  0.230E-05
  -2.050  0.210E-05  0.210E-05
  -2.040  0.186E-05  0.186E-05
  -2.030  0.160E-05  0.160E-05
  -2.020  0.136E-05  0.136E-05
  -2.010  0.117E-05  0.117E-05
  -2.000  0.104E-05  0.104E-05
  -1.990  0.977E-06  0.977E-06
  -1.980  0.984E-06  0.984E-06
  -1.970  0.105E-05  0.105E-05
  -1.960  0.117E-05  0.117E-05
  -1.950  0.134E-05  0.134E-05
  -1.940  0.156E-05  0.156E-05
  -1.930  0.181E-05  0.181E-05
  -1.920  0.208E-05  0.208E-05
  -1.910  0.235E-05  0.235E-05
  -1.900  0.261E-05  0.261E-05
  -1.890  0.281E-05  0.281E-05
  -1.880  0.293E-05  0.293E-05
  -1.870  0.296E-05  0.296E-05
  -1.860  0.288E-05  0.288E-05
  -1.850  0.271E-05  0.271E-05
  -1.840  0.247E-05  0.247E-05
  -1.830  0.219E-05  0.219E-05
  -1.820  0.190E-05  0.190E-05
  -1.810  0.164E-05  0.164E-05
  -1.800  0.145E-05  0.145E-05
  -1.790  0.132E-05  0.132E-05
  -1.780  0.127E-05  0.127E-05
  -1.770  0.128E-05  0.128E-05
  -1.760  0.134E-05  0.134E-05
  -1.750  0.143E-05  0.143E-05
  -1.740  0.153E-05  0.153E-05
  -1.730  0.162E-05  0.162E-05
  -1.720  0.171E-05  0.171E-05
  -1.710  0.180E-05  0.180E-05
  -1.700  0.189E-05  0.189E-05
  -1.690  0.199E-05  0.199E-05
  -1.680  0.211E-05  0.211E-05
  -1.670  0.222E-05  0.222E-05
  -1.660  0.234E-05  0.234E-05
  -1.650  0.243E-05  0.243E-05
  -1.640  0.250E-05  0.250E-05
  -1.630  0.253E-05  0.253E-05
  -1.620  0.252E-05  0.252E-05
  -1.610  0.248E-05  0.248E-05
  -1.600  0.241E-05  0.241E-05
  -1.590  0.233E-05  0.233E-05
  -1.580  0.223E-05  0.223E-05
  -1.570  0.214E-05  0.214E-05
  -1.560  0.205E-05  0.205E-05
  -1.550  0.196E-05  0.196E-05
  -1.540  0.185E-05  0.185E-05
  -1.530  0.173E-05  0.173E-05
  -1.520  0.158E-05  0.158E-05
  -1.510  0.141E-05  0.141E-05
  -1.500  0.123E-05  0.123E-05
  -1.490  0.105E-05  0.105E-05
  -1.480  0.916E-06  0.916E-06
  -1.470  0.852E-06  0.852E-06
  -1.460  0.885E-06  0.885E-06
  -1.450  0.102E-05  0.102E-05
  -1.440  0.126E-05  0.126E-05
  -1.430  0.158E-05  0.158E-05
  -1.420  0.193E-05  0.193E-05
  -1.410  0.227E-05  0.227E-05
  -1.400  0.256E-05  0.256E-05
  -1.390  0.276E-05  0.276E-05
  -1.380  0.287E-05  0.287E-05
  -1.370  0.287E-05  0.287E-05
  -1.360  0.278E-05  0.278E-05
  -1.350  0.262E-05  0.262E-05
  -1.340  0.240E-05  0.240E-05
  -1.330  0.215E-05  0.215E-05
  -1.320  0.187E-05  0.187E-05
  -1.310  0.158E-05  0.158E-05
  -1.300  0.128E-05  0.128E-05
  -1.290  0.981E-06  0.981E-06
  -1.280  0.701E-06  0.701E-06
  -1.270  0.454E-06  0.454E-06
  -1.260  0.259E-06  0.259E-06
  -1.250  0.133E-06  0.133E-06
  -1.240  0.909E-07  0.909E-07
  -1.230  0.143E-06  0.143E-06
  -1.220  0.294E-06  0.294E-06
  -1.210  0.540E-06  0.540E-06
  -1.200  0.869E-06  0.869E-06
  -1.190  0.126E-05  0.126E-05
  -1.180  0.168E-05  0.168E-05
  -1.170  0.208E-05  0.208E-05
  -1.160  0.242E-05  0.242E-05
  -1.150  0.265E-05  0.265E-05
  -1.140  0.273E-05  0.273E-05
  -1.130  0.264E-05  0.264E-05
  -1.120  0.238E-05  0.238E-05
  -1.110  0.200E-05  0.200E-05
  -1.100  0.153E-05  0.153E-05
  -1.090  0.104E-05  0.104E-05
  -1.080  0.581E-06  0.581E-06
  -1.070  0.201E-06  0.201E-06
  -1.060 -0.764E-07 -0.764E-07
  -1.050 -0.248E-06 -0.248E-06
  -1.040 -0.325E-06 -0.325E-06
  -1.030 -0.329E-06 -0.329E-06
  -1.020 -0.283E-06 -0.283E-06
  -1.010 -0.208E-06 -0.208E-06
  -1.000 -0.118E-06 -0.118E-06
  -0.990 -0.194E-07 -0.194E-07
  -0.980  0.876E-07  0.876E-07
  -0.970  0.205E-06  0.205E-06
  -0.960  0.337E-06  0.337E-06
  -0.950  0.481E-06  0.481E-06
  -0.940  0.635E-06  0.635E-06
  -0.930  0.786E-06  0.786E-06
  -0.920  0.919E-06  0.919E-06
  -0.910  0.102E-05  0.102E-05
  -0.900  0.107E-05  0.107E-05
  -0.890  0.105E-05  0.105E-05
  -0.880  0.973E-06  0.973E-06
  -0.870  0.839E-06  0.839E-06
  -0.860  0.666E-06  0.666E-06
  -0.850  0.475E-06  0.475E-06
  -0.840  0.290E-06  0.290E-06
  -0.830  0.129E-06  0.129E-06
  -0.820  0.592E-08  0.592E-08
  -0.810 -0.762E-07 -0.762E-07
  -0.800 -0.120E-06 -0.120E-06
  -0.790 -0.131E-06 -0.131E-06
  -0.780 -0.120E-06 -0.120E-06
  -0.770 -0.946E-07 -0.946E-07
  -0.760 -0.595E-07 -0.595E-07
  -0.750 -0.159E-07 -0.159E-07
  -0.740  0.403E-07  0.403E-07
  -0.730  0.118E-06  0.118E-06
  -0.720  0.229E-06  0.229E-06
  -0.710  0.391E-06  0.391E-06
  -0.700  0.618E-06  0.618E-06
  -0.690  0.924E-06  0.924E-06
  -0.680  0.131E-05  0.131E-05
  -0.670  0.178E-05  0.178E-05
  -0.660  0.229E-05  0.229E-05
  -0.650  0.280E-05  0.280E-05
  -0.640  0.326E-05  0.326E-05
  -0.630  0.359E-05  0.359E-05
  -0.620  0.375E-05  0.375E-05
  -0.610  0.368E-05  0.368E-05
  -0.600  0.340E-05  0.340E-05
  -0.590  0.293E-05  0.293E-05
  -0.580  0.234E-05  0.234E-05
  -0.570  0.169E-05  0.169E-05
  -0.560  0.110E-05  0.110E-05
  -0.550  0.618E-06  0.618E-06
  -0.540  0.311E-06  0.311E-06
  -0.530  0.203E-06  0.203E-06
  -0.520  0.295E-06  0.295E-06
  -0.510  0.568E-06  0.568E-06
  -0.500  0.990E-06  0.990E-06
  -0.490  0.152E-05  0.152E-05
  -0.480  0.212E-05  0.212E-05
  -0.470  0.276E-05  0.276E-05
  -0.460  0.338E-05  0.338E-05
  -0.450  0.398E-05  0.398E-05
  -0.440  0.453E-05  0.453E-05
  -0.430  0.501E-05  0.501E-05
  -0.420  0.542E-05  0.542E-05
  -0.410  0.576E-05  0.576E-05
  -0.400  0.601E-05  0.601E-05
  -0.390  0.616E-05  0.616E-05
  -0.380  0.618E-05  0.618E-05
  -0.370  0.604E-05  0.604E-05
  -0.360  0.574E-05  0.574E-05
  -0.350  0.528E-05  0.528E-05
  -0.340  0.470E-05  0.470E-05
  -0.330  0.408E-05  0.408E-05
  -0.320  0.352E-05  0.352E-05
  -0.310  0.311E-05  0.311E-05
  -0.300  0.292E-05  0.292E-05
  -0.290  0.300E-05  0.300E-05
  -0.280  0.333E-05  0.333E-05
  -0.270  0.384E-05  0.384E-05
  -0.260  0.444E-05  0.444E-05
  -0.250  0.501E-05  0.501E-05
  -0.240  0.546E-05  0.546E-05
  -0.230  0.575E-05  0.575E-05
  -0.220  0.587E-05  0.587E-05
  -0.210  0.592E-05  0.592E-05
  -0.200  0.598E-05  0.598E-05
  -0.190  0.618E-05  0.618E-05
  -0.180  0.660E-05  0.660E-05
  -0.170  0.726E-05  0.726E-05
  -0.160  0.815E-05  0.815E-05
  -0.150  0.918E-05  0.918E-05
  -0.140  0.102E-04  0.102E-04
  -0.130  0.111E-04  0.111E-04
  -0.120  0.118E-04  0.118E-04
  -0.110  0.121E-04  0.121E-04
  -0.100  0.121E-04  0.121E-04
  -0.090  0.118E-04  0.118E-04
  -0.080  0.112E-04  0.112E-04
  -0.070  0.104E-04  0.104E-04
  -0.060  0.955E-05  0.955E-05
  -0.050  0.874E-05  0.874E-05
  -0.040  0.799E-05  0.799E-05
  -0.030  0.733E-05  0.733E-05
  -0.020  0.676E-05  0.676E-05
  -0.010  0.628E-05  0.628E-05
   0.000  0.592E-05  0.592E-05
   0.010  0.576E-05  0.576E-05
   0.020  0.589E-05  0.589E-05
   0.030  0.642E-05  0.642E-05
   0.040  0.743E-05  0.743E-05
   0.050  0.894E-05  0.894E-05
   0.060  0.109E-04  0.109E-04
   0.070  0.132E-04  0.132E-04
   0.080  0.156E-04  0.156E-04
   0.090  0.178E-04  0.178E-04
   0.100  0.196E-04  0.196E-04
   0.110  0.209E-04  0.209E-04
   0.120  0.216E-04  0.216E-04
   0.130  0.217E-04  0.217E-04
   0.140  0.213E-04  0.213E-04
   0.150  0.206E-04  0.206E-04
   0.160  0.197E-04  0.197E-04
   0.170  0.189E-04  0.189E-04
   0.180  0.181E-04  0.181E-04
   0.190  0.174E-04  0.174E-04
   0.200  0.168E-04  0.168E-04
   0.210  0.162E-04  0.162E-04
   0.220  0.157E-04  0.157E-04
   0.230  0.150E-04  0.150E-04
   0.240  0.143E-04  0.143E-04
   0.250  0.137E-04  0.137E-04
   0.260  0.131E-04  0.131E-04
   0.270  0.127E-04  0.127E-04
   0.280  0.126E-04  0.126E-04
   0.290  0.130E-04  0.130E-04
   0.300  0.140E-04  0.140E-04
   0.310  0.158E-04  0.158E-04
   0.320  0.182E-04  0.182E-04
   0.330  0.214E-04  0.214E-04
   0.340  0.252E-04  0.252E-04
   0.350  0.293E-04  0.293E-04
   0.360  0.336E-04  0.336E-04
   0.370  0.377E-04  0.377E-04
   0.380  0.412E-04  0.412E-04
   0.390  0.439E-04  0.439E-04
   0.400  0.456E-04  0.456E-04
   0.410  0.463E-04  0.463E-04
   0.420  0.457E-04  0.457E-04
   0.430  0.442E-04  0.442E-04
   0.440  0.419E-04  0.419E-04
   0.450  0.390E-04  0.390E-04
   0.460  0.358E-04  0.358E-04
   0.470  0.327E-04  0.327E-04
   0.480  0.298E-04  0.298E-04
   0.490  0.273E-04  0.273E-04
   0.500  0.255E-04  0.255E-04
   0.510  0.242E-04  0.242E-04
   0.520  0.237E-04  0.237E-04
   0.530  0.240E-04  0.240E-04
   0.540  0.254E-04  0.254E-04
   0.550  0.281E-04  0.281E-04
   0.560  0.326E-04  0.326E-04
   0.570  0.390E-04  0.390E-04
   0.580  0.477E-04  0.477E-04
   0.590  0.584E-04  0.584E-04
   0.600  0.706E-04  0.706E-04
   0.610  0.834E-04  0.834E-04
   0.620  0.955E-04  0.955E-04
   0.630  0.105E-03  0.105E-03
   0.640  0.112E-03  0.112E-03
   0.650  0.115E-03  0.115E-03
   0.660  0.114E-03  0.114E-03
   0.670  0.109E-03  0.109E-03
   0.680  0.102E-03  0.102E-03
   0.690  0.959E-04  0.959E-04
   0.700  0.920E-04  0.920E-04
   0.710  0.922E-04  0.922E-04
   0.720  0.978E-04  0.978E-04
   0.730  0.109E-03  0.109E-03
   0.740  0.126E-03  0.126E-03
   0.750  0.148E-03  0.148E-03
   0.760  0.173E-03  0.173E-03
   0.770  0.201E-03  0.201E-03
   0.780  0.230E-03  0.230E-03
   0.790  0.259E-03  0.259E-03
   0.800  0.287E-03  0.287E-03
   0.810  0.312E-03  0.312E-03
   0.820  0.333E-03  0.333E-03
   0.830  0.350E-03  0.350E-03
   0.840  0.359E-03  0.359E-03
   0.850  0.362E-03  0.362E-03
   0.860  0.357E-03  0.357E-03
   0.870  0.346E-03  0.346E-03
   0.880  0.329E-03  0.329E-03
   0.890  0.310E-03  0.310E-03
   0.900  0.290E-03  0.290E-03
   0.910  0.270E-03  0.270E-03
   0.920  0.252E-03  0.252E-03
   0.930  0.236E-03  0.236E-03
   0.940  0.222E-03  0.222E-03
   0.950  0.209E-03  0.209E-03
   0.960  0.199E-03  0.199E-03
   0.970  0.190E-03  0.190E-03
   0.980  0.183E-03  0.183E-03
   0.990  0.177E-03  0.177E-03
   1.000  0.173E-03  0.173E-03
   1.010  0.169E-03  0.169E-03
   1.020  0.165E-03  0.165E-03
   1.030  0.161E-03  0.161E-03
   1.040  0.158E-03  0.158E-03
   1.050  0.156E-03  0.156E-03
   1.060  0.154E-03  0.154E-03
   1.070  0.154E-03  0.154E-03
   1.080  0.156E-03  0.156E-03
   1.090  0.158E-03  0.158E-03
   1.100  0.161E-03  0.161E-03
   1.110  0.163E-03  0.163E-03
   1.120  0.162E-03  0.162E-03
   1.130  0.160E-03  0.160E-03
   1.140  0.156E-03  0.156E-03
   1.150  0.152E-03  0.152E-03
   1.160  0.149E-03  0.149E-03
   1.170  0.148E-03  0.148E-03
   1.180  0.149E-03  0.149E-03
   1.190  0.153E-03  0.153E-03
   1.200  0.159E-03  0.159E-03
   1.210  0.165E-03  0.165E-03
   1.220  0.168E-03  0.168E-03
   1.230  0.169E-03  0.169E-03
   1.240  0.166E-03  0.166E-03
   1.250  0.159E-03  0.159E-03
   1.260  0.149E-03  0.149E-03
   1.270  0.137E-03  0.137E-03
   1.280  0.126E-03  0.126E-03
   1.290  0.117E-03  0.117E-03
   1.300  0.112E-03  0.112E-03
   1.310  0.112E-03  0.112E-03
   1.320  0.116E-03  0.116E-03
   1.330  0.123E-03  0.123E-03
   1.340  0.132E-03  0.132E-03
   1.350  0.141E-03  0.141E-03
   1.360  0.147E-03  0.147E-03
   1.370  0.148E-03  0.148E-03
   1.380  0.145E-03  0.145E-03
   1.390  0.138E-03  0.138E-03
   1.400  0.127E-03  0.127E-03
   1.410  0.117E-03  0.117E-03
   1.420  0.108E-03  0.108E-03
   1.430  0.103E-03  0.103E-03
   1.440  0.103E-03  0.103E-03
   1.450  0.109E-03  0.109E-03
   1.460  0.119E-03  0.119E-03
   1.470  0.133E-03  0.133E-03
   1.480  0.147E-03  0.147E-03
   1.490  0.159E-03  0.159E-03
   1.500  0.167E-03  0.167E-03
   1.510  0.170E-03  0.170E-03
   1.520  0.166E-03  0.166E-03
   1.530  0.158E-03  0.158E-03
   1.540  0.146E-03  0.146E-03
   1.550  0.131E-03  0.131E-03
   1.560  0.117E-03  0.117E-03
   1.570  0.104E-03  0.104E-03
   1.580  0.950E-04  0.950E-04
   1.590  0.905E-04  0.905E-04
   1.600  0.906E-04  0.906E-04
   1.610  0.951E-04  0.951E-04
   1.620  0.103E-03  0.103E-03
   1.630  0.113E-03  0.113E-03
   1.640  0.125E-03  0.125E-03
   1.650  0.135E-03  0.135E-03
   1.660  0.143E-03  0.143E-03
   1.670  0.147E-03  0.147E-03
   1.680  0.146E-03  0.146E-03
   1.690  0.141E-03  0.141E-03
   1.700  0.131E-03  0.131E-03
   1.710  0.118E-03  0.118E-03
   1.720  0.104E-03  0.104E-03
   1.730  0.917E-04  0.917E-04
   1.740  0.832E-04  0.832E-04
   1.750  0.800E-04  0.800E-04
   1.760  0.828E-04  0.828E-04
   1.770  0.915E-04  0.915E-04
   1.780  0.105E-03  0.105E-03
   1.790  0.121E-03  0.121E-03
   1.800  0.139E-03  0.139E-03
   1.810  0.155E-03  0.155E-03
   1.820  0.167E-03  0.167E-03
   1.830  0.174E-03  0.174E-03
   1.840  0.175E-03  0.175E-03
   1.850  0.169E-03  0.169E-03
   1.860  0.157E-03  0.157E-03
   1.870  0.140E-03  0.140E-03
   1.880  0.121E-03  0.121E-03
   1.890  0.103E-03  0.103E-03
   1.900  0.873E-04  0.873E-04
   1.910  0.761E-04  0.761E-04
   1.920  0.701E-04  0.701E-04
   1.930  0.694E-04  0.694E-04
   1.940  0.735E-04  0.735E-04
   1.950  0.815E-04  0.815E-04
   1.960  0.924E-04  0.924E-04
   1.970  0.105E-03  0.105E-03
   1.980  0.118E-03  0.118E-03
   1.990  0.131E-03  0.131E-03
   2.000  0.142E-03  0.142E-03
   2.010  0.150E-03  0.150E-03
   2.020  0.154E-03  0.154E-03
   2.030  0.153E-03  0.153E-03
   2.040  0.146E-03  0.146E-03
   2.050  0.135E-03  0.135E-03
   2.060  0.121E-03  0.121E-03
   2.070  0.105E-03  0.105E-03
   2.080  0.910E-04  0.910E-04
   2.090  0.801E-04  0.801E-04
   2.100  0.743E-04  0.743E-04
   2.110  0.745E-04  0.745E-04
   2.120  0.807E-04  0.807E-04
   2.130  0.923E-04  0.923E-04
   2.140  0.108E-03  0.108E-03
   2.150  0.126E-03  0.126E-03
   2.160  0.146E-03  0.146E-03
   2.170  0.167E-03  0.167E-03
   2.180  0.189E-03  0.189E-03
   2.190  0.217E-03  0.217E-03
   2.200  0.259E-03  0.259E-03
   2.210  0.328E-03  0.328E-03
   2.220  0.449E-03  0.449E-03
   2.230  0.653E-03  0.653E-03
   2.240  0.986E-03  0.986E-03
   2.250  0.150E-02  0.150E-02
   2.260  0.225E-02  0.225E-02
   2.270  0.330E-02  0.330E-02
   2.280  0.467E-02  0.467E-02
   2.290  0.639E-02  0.639E-02
   2.300  0.843E-02  0.843E-02
   2.310  0.107E-01  0.107E-01
   2.320  0.131E-01  0.131E-01
   2.330  0.156E-01  0.156E-01
   2.340  0.178E-01  0.178E-01
   2.350  0.198E-01  0.198E-01
   2.360  0.213E-01  0.213E-01
   2.370  0.224E-01  0.224E-01
   2.380  0.230E-01  0.230E-01
   2.390  0.232E-01  0.232E-01
   2.400  0.231E-01  0.231E-01
   2.410  0.227E-01  0.227E-01
   2.420  0.221E-01  0.221E-01
   2.430  0.215E-01  0.215E-01
   2.440  0.210E-01  0.210E-01
   2.450  0.204E-01  0.204E-01
   2.460  0.200E-01  0.200E-01
   2.470  0.196E-01  0.196E-01
   2.480  0.192E-01  0.192E-01
   2.490  0.190E-01  0.190E-01
   2.500  0.187E-01  0.187E-01
   2.510  0.185E-01  0.185E-01
   2.520  0.182E-01  0.182E-01
   2.530  0.181E-01  0.181E-01
   2.540  0.179E-01  0.179E-01
   2.550  0.177E-01  0.177E-01
   2.560  0.176E-01  0.176E-01
   2.570  0.175E-01  0.175E-01
   2.580  0.173E-01  0.173E-01
   2.590  0.171E-01  0.171E-01
   2.600  0.169E-01  0.169E-01
   2.610  0.166E-01  0.166E-01
   2.620  0.164E-01  0.164E-01
   2.630  0.163E-01  0.163E-01
   2.640  0.162E-01  0.162E-01
   2.650  0.162E-01  0.162E-01
   2.660  0.161E-01  0.161E-01
   2.670  0.160E-01  0.160E-01
   2.680  0.158E-01  0.158E-01
   2.690  0.156E-01  0.156E-01
   2.700  0.153E-01  0.153E-01
   2.710  0.151E-01  0.151E-01
   2.720  0.150E-01  0.150E-01
   2.730  0.152E-01  0.152E-01
   2.740  0.155E-01  0.155E-01
   2.750  0.160E-01  0.160E-01
   2.760  0.165E-01  0.165E-01
   2.770  0.170E-01  0.170E-01
   2.780  0.173E-01  0.173E-01
   2.790  0.176E-01  0.176E-01
   2.800  0.177E-01  0.177E-01
   2.810  0.178E-01  0.178E-01
   2.820  0.180E-01  0.180E-01
   2.830  0.182E-01  0.182E-01
   2.840  0.186E-01  0.186E-01
   2.850  0.190E-01  0.190E-01
   2.860  0.194E-01  0.194E-01
   2.870  0.197E-01  0.197E-01
   2.880  0.197E-01  0.197E-01
   2.890  0.195E-01  0.195E-01
   2.900  0.191E-01  0.191E-01
   2.910  0.184E-01  0.184E-01
   2.920  0.177E-01  0.177E-01
   2.930  0.170E-01  0.170E-01
   2.940  0.166E-01  0.166E-01
   2.950  0.164E-01  0.164E-01
   2.960  0.165E-01  0.165E-01
   2.970  0.168E-01  0.168E-01
   2.980  0.173E-01  0.173E-01
   2.990  0.178E-01  0.178E-01
   3.000  0.181E-01  0.181E-01
   3.010  0.182E-01  0.182E-01
   3.020  0.180E-01  0.180E-01
   3.030  0.175E-01  0.175E-01
   3.040  0.168E-01  0.168E-01
   3.050  0.160E-01  0.160E-01
   3.060  0.153E-01  0.153E-01
   3.070  0.147E-01  0.147E-01
   3.080  0.145E-01  0.145E-01
   3.090  0.146E-01  0.146E-01
   3.100  0.150E-01  0.150E-01
   3.110  0.156E-01  0.156E-01
   3.120  0.163E-01  0.163E-01
   3.130  0.168E-01  0.168E-01
   3.140  0.172E-01  0.172E-01
   3.150  0.172E-01  0.172E-01
   3.160  0.169E-01  0.169E-01
   3.170  0.163E-01  0.163E-01
   3.180  0.155E-01  0.155E-01
   3.190  0.147E-01  0.147E-01
   3.200  0.140E-01  0.140E-01
   3.210  0.135E-01  0.135E-01
   3.220  0.133E-01  0.133E-01
   3.230  0.133E-01  0.133E-01
   3.240  0.135E-01  0.135E-01
   3.250  0.140E-01  0.140E-01
   3.260  0.145E-01  0.145E-01
   3.270  0.152E-01  0.152E-01
   3.280  0.157E-01  0.157E-01
   3.290  0.162E-01  0.162E-01
   3.300  0.163E-01  0.163E-01
   3.310  0.162E-01  0.162E-01
   3.320  0.158E-01  0.158E-01
   3.330  0.151E-01  0.151E-01
   3.340  0.142E-01  0.142E-01
   3.350  0.133E-01  0.133E-01
   3.360  0.125E-01  0.125E-01
   3.370  0.119E-01  0.119E-01
   3.380  0.117E-01  0.117E-01
   3.390  0.117E-01  0.117E-01
   3.400  0.121E-01  0.121E-01
   3.410  0.128E-01  0.128E-01
   3.420  0.136E-01  0.136E-01
   3.430  0.145E-01  0.145E-01
   3.440  0.153E-01  0.153E-01
   3.450  0.159E-01  0.159E-01
   3.460  0.161E-01  0.161E-01
   3.470  0.161E-01  0.161E-01
   3.480  0.156E-01  0.156E-01
   3.490  0.149E-01  0.149E-01
   3.500  0.139E-01  0.139E-01
   3.510  0.129E-01  0.129E-01
   3.520  0.119E-01  0.119E-01
   3.530  0.111E-01  0.111E-01
   3.540  0.106E-01  0.106E-01
   3.550  0.105E-01  0.105E-01
   3.560  0.108E-01  0.108E-01
   3.570  0.114E-01  0.114E-01
   3.580  0.123E-01  0.123E-01
   3.590  0.132E-01  0.132E-01
   3.600  0.141E-01  0.141E-01
   3.610  0.149E-01  0.149E-01
   3.620  0.153E-01  0.153E-01
   3.630  0.154E-01  0.154E-01
   3.640  0.153E-01  0.153E-01
   3.650  0.148E-01  0.148E-01
   3.660  0.142E-01  0.142E-01
   3.670  0.135E-01  0.135E-01
   3.680  0.128E-01  0.128E-01
   3.690  0.122E-01  0.122E-01
   3.700  0.116E-01  0.116E-01
   3.710  0.112E-01  0.112E-01
   3.720  0.109E-01  0.109E-01
   3.730  0.107E-01  0.107E-01
   3.740  0.107E-01  0.107E-01
   3.750  0.109E-01  0.109E-01
   3.760  0.113E-01  0.113E-01
   3.770  0.118E-01  0.118E-01
   3.780  0.125E-01  0.125E-01
   3.790  0.133E-01  0.133E-01
   3.800  0.140E-01  0.140E-01
   3.810  0.146E-01  0.146E-01
   3.820  0.150E-01  0.150E-01
   3.830  0.150E-01  0.150E-01
   3.840  0.148E-01  0.148E-01
   3.850  0.144E-01  0.144E-01
   3.860  0.139E-01  0.139E-01
   3.870  0.133E-01  0.133E-01
   3.880  0.129E-01  0.129E-01
   3.890  0.126E-01  0.126E-01
   3.900  0.125E-01  0.125E-01
   3.910  0.126E-01  0.126E-01
   3.920  0.127E-01  0.127E-01
   3.930  0.130E-01  0.130E-01
   3.940  0.134E-01  0.134E-01
   3.950  0.138E-01  0.138E-01
   3.960  0.144E-01  0.144E-01
   3.970  0.151E-01  0.151E-01
   3.980  0.159E-01  0.159E-01
   3.990  0.168E-01  0.168E-01
   4.000  0.178E-01  0.178E-01
   4.010  0.186E-01  0.186E-01
   4.020  0.193E-01  0.193E-01
   4.030  0.198E-01  0.198E-01
   4.040  0.198E-01  0.198E-01
   4.050  0.195E-01  0.195E-01
   4.060  0.187E-01  0.187E-01
   4.070  0.178E-01  0.178E-01
   4.080  0.166E-01  0.166E-01
   4.090  0.155E-01  0.155E-01
   4.100  0.145E-01  0.145E-01
   4.110  0.138E-01  0.138E-01
   4.120  0.133E-01  0.133E-01
   4.130  0.131E-01  0.131E-01
   4.140  0.131E-01  0.131E-01
   4.150  0.134E-01  0.134E-01
   4.160  0.138E-01  0.138E-01
   4.170  0.144E-01  0.144E-01
   4.180  0.150E-01  0.150E-01
   4.190  0.157E-01  0.157E-01
   4.200  0.165E-01  0.165E-01
   4.210  0.173E-01  0.173E-01
   4.220  0.180E-01  0.180E-01
   4.230  0.186E-01  0.186E-01
   4.240  0.190E-01  0.190E-01
   4.250  0.191E-01  0.191E-01
   4.260  0.189E-01  0.189E-01
   4.270  0.185E-01  0.185E-01
   4.280  0.177E-01  0.177E-01
   4.290  0.168E-01  0.168E-01
   4.300  0.158E-01  0.158E-01
   4.310  0.147E-01  0.147E-01
   4.320  0.137E-01  0.137E-01
   4.330  0.128E-01  0.128E-01
   4.340  0.122E-01  0.122E-01
   4.350  0.120E-01  0.120E-01
   4.360  0.120E-01  0.120E-01
   4.370  0.124E-01  0.124E-01
   4.380  0.131E-01  0.131E-01
   4.390  0.140E-01  0.140E-01
   4.400  0.150E-01  0.150E-01
   4.410  0.161E-01  0.161E-01
   4.420  0.171E-01  0.171E-01
   4.430  0.180E-01  0.180E-01
   4.440  0.186E-01  0.186E-01
   4.450  0.190E-01  0.190E-01
   4.460  0.191E-01  0.191E-01
   4.470  0.189E-01  0.189E-01
   4.480  0.185E-01  0.185E-01
   4.490  0.178E-01  0.178E-01
   4.500  0.171E-01  0.171E-01
   4.510  0.163E-01  0.163E-01
   4.520  0.156E-01  0.156E-01
   4.530  0.149E-01  0.149E-01
   4.540  0.144E-01  0.144E-01
   4.550  0.140E-01  0.140E-01
   4.560  0.136E-01  0.136E-01
   4.570  0.133E-01  0.133E-01
   4.580  0.130E-01  0.130E-01
   4.590  0.129E-01  0.129E-01
   4.600  0.130E-01  0.130E-01
   4.610  0.132E-01  0.132E-01
   4.620  0.138E-01  0.138E-01
   4.630  0.146E-01  0.146E-01
   4.640  0.156E-01  0.156E-01
   4.650  0.167E-01  0.167E-01
   4.660  0.177E-01  0.177E-01
   4.670  0.186E-01  0.186E-01
   4.680  0.193E-01  0.193E-01
   4.690  0.196E-01  0.196E-01
   4.700  0.196E-01  0.196E-01
   4.710  0.193E-01  0.193E-01
   4.720  0.188E-01  0.188E-01
   4.730  0.180E-01  0.180E-01
   4.740  0.173E-01  0.173E-01
   4.750  0.165E-01  0.165E-01
   4.760  0.159E-01  0.159E-01
   4.770  0.154E-01  0.154E-01
   4.780  0.150E-01  0.150E-01
   4.790  0.149E-01  0.149E-01
   4.800  0.148E-01  0.148E-01
   4.810  0.148E-01  0.148E-01
   4.820  0.149E-01  0.149E-01
   4.830  0.149E-01  0.149E-01
   4.840  0.149E-01  0.149E-01
   4.850  0.150E-01  0.150E-01
   4.860  0.152E-01  0.152E-01
   4.870  0.156E-01  0.156E-01
   4.880  0.162E-01  0.162E-01
   4.890  0.171E-01  0.171E-01
   4.900  0.181E-01  0.181E-01
   4.910  0.191E-01  0.191E-01
   4.920  0.200E-01  0.200E-01
   4.930  0.206E-01  0.206E-01
   4.940  0.209E-01  0.209E-01
   4.950  0.207E-01  0.207E-01
   4.960  0.203E-01  0.203E-01
   4.970  0.197E-01  0.197E-01
   4.980  0.190E-01  0.190E-01
   4.990  0.183E-01  0.183E-01
   5.000  0.179E-01  0.179E-01
   5.010  0.176E-01  0.176E-01
   5.020  0.175E-01  0.175E-01
   5.030  0.176E-01  0.176E-01
   5.040  0.179E-01  0.179E-01
   5.050  0.183E-01  0.183E-01
   5.060  0.188E-01  0.188E-01
   5.070  0.193E-01  0.193E-01
   5.080  0.199E-01  0.199E-01
   5.090  0.204E-01  0.204E-01
   5.100  0.209E-01  0.209E-01
   5.110  0.214E-01  0.214E-01
   5.120  0.220E-01  0.220E-01
   5.130  0.226E-01  0.226E-01
   5.140  0.234E-01  0.234E-01
   5.150  0.242E-01  0.242E-01
   5.160  0.251E-01  0.251E-01
   5.170  0.258E-01  0.258E-01
   5.180  0.264E-01  0.264E-01
   5.190  0.267E-01  0.267E-01
   5.200  0.266E-01  0.266E-01
   5.210  0.262E-01  0.262E-01
   5.220  0.254E-01  0.254E-01
   5.230  0.246E-01  0.246E-01
   5.240  0.237E-01  0.237E-01
   5.250  0.231E-01  0.231E-01
   5.260  0.228E-01  0.228E-01
   5.270  0.229E-01  0.229E-01
   5.280  0.233E-01  0.233E-01
   5.290  0.240E-01  0.240E-01
   5.300  0.248E-01  0.248E-01
   5.310  0.258E-01  0.258E-01
   5.320  0.267E-01  0.267E-01
   5.330  0.275E-01  0.275E-01
   5.340  0.281E-01  0.281E-01
   5.350  0.286E-01  0.286E-01
   5.360  0.289E-01  0.289E-01
   5.370  0.292E-01  0.292E-01
   5.380  0.294E-01  0.294E-01
   5.390  0.296E-01  0.296E-01
   5.400  0.300E-01  0.300E-01
   5.410  0.306E-01  0.306E-01
   5.420  0.313E-01  0.313E-01
   5.430  0.321E-01  0.321E-01
   5.440  0.328E-01  0.328E-01
   5.450  0.334E-01  0.334E-01
   5.460  0.339E-01  0.339E-01
   5.470  0.341E-01  0.341E-01
   5.480  0.341E-01  0.341E-01
   5.490  0.340E-01  0.340E-01
   5.500  0.338E-01  0.338E-01
   5.510  0.337E-01  0.337E-01
   5.520  0.336E-01  0.336E-01
   5.530  0.336E-01  0.336E-01
   5.540  0.337E-01  0.337E-01
   5.550  0.338E-01  0.338E-01
   5.560  0.339E-01  0.339E-01
   5.570  0.337E-01  0.337E-01
   5.580  0.334E-01  0.334E-01
   5.590  0.330E-01  0.330E-01
   5.600  0.324E-01  0.324E-01
   5.610  0.318E-01  0.318E-01
   5.620  0.312E-01  0.312E-01
   5.630  0.308E-01  0.308E-01
   5.640  0.305E-01  0.305E-01
   5.650  0.304E-01  0.304E-01
   5.660  0.304E-01  0.304E-01
   5.670  0.304E-01  0.304E-01
   5.680  0.305E-01  0.305E-01
   5.690  0.306E-01  0.306E-01
   5.700  0.309E-01  0.309E-01
   5.710  0.314E-01  0.314E-01
   5.720  0.322E-01  0.322E-01
   5.730  0.332E-01  0.332E-01
   5.740  0.344E-01  0.344E-01
   5.750  0.356E-01  0.356E-01
   5.760  0.366E-01  0.366E-01
   5.770  0.371E-01  0.371E-01
   5.780  0.371E-01  0.371E-01
   5.790  0.367E-01  0.367E-01
   5.800  0.360E-01  0.360E-01
   5.810  0.352E-01  0.352E-01
   5.820  0.346E-01  0.346E-01
   5.830  0.343E-01  0.343E-01
   5.840  0.344E-01  0.344E-01
   5.850  0.348E-01  0.348E-01
   5.860  0.354E-01  0.354E-01
   5.870  0.360E-01  0.360E-01
   5.880  0.364E-01  0.364E-01
   5.890  0.364E-01  0.364E-01
   5.900  0.360E-01  0.360E-01
   5.910  0.352E-01  0.352E-01
   5.920  0.342E-01  0.342E-01
   5.930  0.332E-01  0.332E-01
   5.940  0.323E-01  0.323E-01
   5.950  0.317E-01  0.317E-01
   5.960  0.313E-01  0.313E-01
   5.970  0.312E-01  0.312E-01
   5.980  0.313E-01  0.313E-01
   5.990  0.317E-01  0.317E-01
   6.000  0.322E-01  0.322E-01
   6.010  0.329E-01  0.329E-01
   6.020  0.339E-01  0.339E-01
   6.030  0.350E-01  0.350E-01
   6.040  0.364E-01  0.364E-01
   6.050  0.381E-01  0.381E-01
   6.060  0.398E-01  0.398E-01
   6.070  0.416E-01  0.416E-01
   6.080  0.433E-01  0.433E-01
   6.090  0.449E-01  0.449E-01
   6.100  0.463E-01  0.463E-01
   6.110  0.477E-01  0.477E-01
   6.120  0.491E-01  0.491E-01
   6.130  0.506E-01  0.506E-01
   6.140  0.525E-01  0.525E-01
   6.150  0.546E-01  0.546E-01
   6.160  0.570E-01  0.570E-01
   6.170  0.595E-01  0.595E-01
   6.180  0.619E-01  0.619E-01
   6.190  0.641E-01  0.641E-01
   6.200  0.660E-01  0.660E-01
   6.210  0.675E-01  0.675E-01
   6.220  0.685E-01  0.685E-01
   6.230  0.689E-01  0.689E-01
   6.240  0.688E-01  0.688E-01
   6.250  0.680E-01  0.680E-01
   6.260  0.667E-01  0.667E-01
   6.270  0.647E-01  0.647E-01
   6.280  0.624E-01  0.624E-01
   6.290  0.597E-01  0.597E-01
   6.300  0.570E-01  0.570E-01
   6.310  0.544E-01  0.544E-01
   6.320  0.524E-01  0.524E-01
   6.330  0.511E-01  0.511E-01
   6.340  0.506E-01  0.506E-01
   6.350  0.509E-01  0.509E-01
   6.360  0.521E-01  0.521E-01
   6.370  0.537E-01  0.537E-01
   6.380  0.556E-01  0.556E-01
   6.390  0.575E-01  0.575E-01
   6.400  0.590E-01  0.590E-01
   6.410  0.600E-01  0.600E-01
   6.420  0.603E-01  0.603E-01
   6.430  0.602E-01  0.602E-01
   6.440  0.595E-01  0.595E-01
   6.450  0.585E-01  0.585E-01
   6.460  0.573E-01  0.573E-01
   6.470  0.560E-01  0.560E-01
   6.480  0.545E-01  0.545E-01
   6.490  0.531E-01  0.531E-01
   6.500  0.516E-01  0.516E-01
   6.510  0.501E-01  0.501E-01
   6.520  0.487E-01  0.487E-01
   6.530  0.475E-01  0.475E-01
   6.540  0.464E-01  0.464E-01
   6.550  0.453E-01  0.453E-01
   6.560  0.442E-01  0.442E-01
   6.570  0.430E-01  0.430E-01
   6.580  0.414E-01  0.414E-01
   6.590  0.394E-01  0.394E-01
   6.600  0.372E-01  0.372E-01
   6.610  0.348E-01  0.348E-01
   6.620  0.326E-01  0.326E-01
   6.630  0.307E-01  0.307E-01
   6.640  0.295E-01  0.295E-01
   6.650  0.292E-01  0.292E-01
   6.660  0.296E-01  0.296E-01
   6.670  0.308E-01  0.308E-01
   6.680  0.326E-01  0.326E-01
   6.690  0.347E-01  0.347E-01
   6.700  0.368E-01  0.368E-01
   6.710  0.389E-01  0.389E-01
   6.720  0.406E-01  0.406E-01
   6.730  0.419E-01  0.419E-01
   6.740  0.427E-01  0.427E-01
   6.750  0.432E-01  0.432E-01
   6.760  0.433E-01  0.433E-01
   6.770  0.432E-01  0.432E-01
   6.780  0.430E-01  0.430E-01
   6.790  0.426E-01  0.426E-01
   6.800  0.421E-01  0.421E-01
   6.810  0.414E-01  0.414E-01
   6.820  0.404E-01  0.404E-01
   6.830  0.392E-01  0.392E-01
   6.840  0.379E-01  0.379E-01
   6.850  0.367E-01  0.367E-01
   6.860  0.357E-01  0.357E-01
   6.870  0.351E-01  0.351E-01
   6.880  0.349E-01  0.349E-01
   6.890  0.353E-01  0.353E-01
   6.900  0.360E-01  0.360E-01
   6.910  0.369E-01  0.369E-01
   6.920  0.380E-01  0.380E-01
   6.930  0.391E-01  0.391E-01
   6.940  0.404E-01  0.404E-01
   6.950  0.418E-01  0.418E-01
   6.960  0.437E-01  0.437E-01
   6.970  0.459E-01  0.459E-01
   6.980  0.486E-01  0.486E-01
   6.990  0.516E-01  0.516E-01
   7.000  0.546E-01  0.546E-01
   7.010  0.574E-01  0.574E-01
   7.020  0.596E-01  0.596E-01
   7.030  0.609E-01  0.609E-01
   7.040  0.611E-01  0.611E-01
   7.050  0.602E-01  0.602E-01
   7.060  0.583E-01  0.583E-01
   7.070  0.557E-01  0.557E-01
   7.080  0.526E-01  0.526E-01
   7.090  0.493E-01  0.493E-01
   7.100  0.463E-01  0.463E-01
   7.110  0.438E-01  0.438E-01
   7.120  0.420E-01  0.420E-01
   7.130  0.412E-01  0.412E-01
   7.140  0.415E-01  0.415E-01
   7.150  0.427E-01  0.427E-01
   7.160  0.448E-01  0.448E-01
   7.170  0.475E-01  0.475E-01
   7.180  0.504E-01  0.504E-01
   7.190  0.533E-01  0.533E-01
   7.200  0.557E-01  0.557E-01
   7.210  0.576E-01  0.576E-01
   7.220  0.589E-01  0.589E-01
   7.230  0.599E-01  0.599E-01
   7.240  0.606E-01  0.606E-01
   7.250  0.614E-01  0.614E-01
   7.260  0.622E-01  0.622E-01
   7.270  0.631E-01  0.631E-01
   7.280  0.638E-01  0.638E-01
   7.290  0.642E-01  0.642E-01
   7.300  0.640E-01  0.640E-01
   7.310  0.632E-01  0.632E-01
   7.320  0.620E-01  0.620E-01
   7.330  0.605E-01  0.605E-01
   7.340  0.591E-01  0.591E-01
   7.350  0.580E-01  0.580E-01
   7.360  0.576E-01  0.576E-01
   7.370  0.578E-01  0.578E-01
   7.380  0.586E-01  0.586E-01
   7.390  0.598E-01  0.598E-01
   7.400  0.613E-01  0.613E-01
   7.410  0.630E-01  0.630E-01
   7.420  0.647E-01  0.647E-01
   7.430  0.663E-01  0.663E-01
   7.440  0.680E-01  0.680E-01
   7.450  0.696E-01  0.696E-01
   7.460  0.711E-01  0.711E-01
   7.470  0.727E-01  0.727E-01
   7.480  0.744E-01  0.744E-01
   7.490  0.763E-01  0.763E-01
   7.500  0.785E-01  0.785E-01
   7.510  0.809E-01  0.809E-01
   7.520  0.834E-01  0.834E-01
   7.530  0.858E-01  0.858E-01
   7.540  0.879E-01  0.879E-01
   7.550  0.896E-01  0.896E-01
   7.560  0.905E-01  0.905E-01
   7.570  0.908E-01  0.908E-01
   7.580  0.902E-01  0.902E-01
   7.590  0.889E-01  0.889E-01
   7.600  0.870E-01  0.870E-01
   7.610  0.844E-01  0.844E-01
   7.620  0.816E-01  0.816E-01
   7.630  0.787E-01  0.787E-01
   7.640  0.764E-01  0.764E-01
   7.650  0.752E-01  0.752E-01
   7.660  0.759E-01  0.759E-01
   7.670  0.793E-01  0.793E-01
   7.680  0.860E-01  0.860E-01
   7.690  0.965E-01  0.965E-01
   7.700  0.111E+00  0.111E+00
   7.710  0.128E+00  0.128E+00
   7.720  0.147E+00  0.147E+00
   7.730  0.166E+00  0.166E+00
   7.740  0.183E+00  0.183E+00
   7.750  0.198E+00  0.198E+00
   7.760  0.207E+00  0.207E+00
   7.770  0.212E+00  0.212E+00
   7.780  0.212E+00  0.212E+00
   7.790  0.208E+00  0.208E+00
   7.800  0.201E+00  0.201E+00
   7.810  0.193E+00  0.193E+00
   7.820  0.184E+00  0.184E+00
   7.830  0.175E+00  0.175E+00
   7.840  0.168E+00  0.168E+00
   7.850  0.162E+00  0.162E+00
   7.860  0.157E+00  0.157E+00
   7.870  0.153E+00  0.153E+00
   7.880  0.150E+00  0.150E+00
   7.890  0.147E+00  0.147E+00
   7.900  0.145E+00  0.145E+00
   7.910  0.143E+00  0.143E+00
   7.920  0.140E+00  0.140E+00
   7.930  0.139E+00  0.139E+00
   7.940  0.137E+00  0.137E+00
   7.950  0.138E+00  0.138E+00
   7.960  0.139E+00  0.139E+00
   7.970  0.142E+00  0.142E+00
   7.980  0.145E+00  0.145E+00
   7.990  0.147E+00  0.147E+00
   8.000  0.149E+00  0.149E+00
   8.010  0.149E+00  0.149E+00
   8.020  0.146E+00  0.146E+00
   8.030  0.142E+00  0.142E+00
   8.040  0.136E+00  0.136E+00
   8.050  0.129E+00  0.129E+00
   8.060  0.123E+00  0.123E+00
   8.070  0.118E+00  0.118E+00
   8.080  0.114E+00  0.114E+00
   8.090  0.114E+00  0.114E+00
   8.100  0.115E+00  0.115E+00
   8.110  0.118E+00  0.118E+00
   8.120  0.123E+00  0.123E+00
   8.130  0.127E+00  0.127E+00
   8.140  0.131E+00  0.131E+00
   8.150  0.134E+00  0.134E+00
   8.160  0.135E+00  0.135E+00
   8.170  0.134E+00  0.134E+00
   8.180  0.132E+00  0.132E+00
   8.190  0.129E+00  0.129E+00
   8.200  0.126E+00  0.126E+00
   8.210  0.123E+00  0.123E+00
   8.220  0.121E+00  0.121E+00
   8.230  0.121E+00  0.121E+00
   8.240  0.122E+00  0.122E+00
   8.250  0.124E+00  0.124E+00
   8.260  0.128E+00  0.128E+00
   8.270  0.132E+00  0.132E+00
   8.280  0.137E+00  0.137E+00
   8.290  0.140E+00  0.140E+00
   8.300  0.143E+00  0.143E+00
   8.310  0.144E+00  0.144E+00
   8.320  0.142E+00  0.142E+00
   8.330  0.139E+00  0.139E+00
   8.340  0.134E+00  0.134E+00
   8.350  0.128E+00  0.128E+00
   8.360  0.122E+00  0.122E+00
   8.370  0.118E+00  0.118E+00
   8.380  0.115E+00  0.115E+00
   8.390  0.114E+00  0.114E+00
   8.400  0.116E+00  0.116E+00
   8.410  0.118E+00  0.118E+00
   8.420  0.122E+00  0.122E+00
   8.430  0.125E+00  0.125E+00
   8.440  0.127E+00  0.127E+00
   8.450  0.128E+00  0.128E+00
   8.460  0.129E+00  0.129E+00
   8.470  0.129E+00  0.129E+00
   8.480  0.130E+00  0.130E+00
   8.490  0.133E+00  0.133E+00
   8.500  0.138E+00  0.138E+00
   8.510  0.145E+00  0.145E+00
   8.520  0.152E+00  0.152E+00
   8.530  0.160E+00  0.160E+00
   8.540  0.167E+00  0.167E+00
   8.550  0.171E+00  0.171E+00
   8.560  0.172E+00  0.172E+00
   8.570  0.169E+00  0.169E+00
   8.580  0.164E+00  0.164E+00
   8.590  0.157E+00  0.157E+00
   8.600  0.147E+00  0.147E+00
   8.610  0.137E+00  0.137E+00
   8.620  0.127E+00  0.127E+00
   8.630  0.117E+00  0.117E+00
   8.640  0.109E+00  0.109E+00
   8.650  0.101E+00  0.101E+00
   8.660  0.951E-01  0.951E-01
   8.670  0.911E-01  0.911E-01
   8.680  0.892E-01  0.892E-01
   8.690  0.899E-01  0.899E-01
   8.700  0.933E-01  0.933E-01
   8.710  0.996E-01  0.996E-01
   8.720  0.109E+00  0.109E+00
   8.730  0.120E+00  0.120E+00
   8.740  0.133E+00  0.133E+00
   8.750  0.148E+00  0.148E+00
   8.760  0.161E+00  0.161E+00
   8.770  0.173E+00  0.173E+00
   8.780  0.182E+00  0.182E+00
   8.790  0.188E+00  0.188E+00
   8.800  0.189E+00  0.189E+00
   8.810  0.187E+00  0.187E+00
   8.820  0.182E+00  0.182E+00
   8.830  0.176E+00  0.176E+00
   8.840  0.168E+00  0.168E+00
   8.850  0.161E+00  0.161E+00
   8.860  0.154E+00  0.154E+00
   8.870  0.147E+00  0.147E+00
   8.880  0.141E+00  0.141E+00
   8.890  0.136E+00  0.136E+00
   8.900  0.132E+00  0.132E+00
   8.910  0.129E+00  0.129E+00
   8.920  0.129E+00  0.129E+00
   8.930  0.132E+00  0.132E+00
   8.940  0.137E+00  0.137E+00
   8.950  0.145E+00  0.145E+00
   8.960  0.155E+00  0.155E+00
   8.970  0.165E+00  0.165E+00
   8.980  0.175E+00  0.175E+00
   8.990  0.183E+00  0.183E+00
   9.000  0.188E+00  0.188E+00
   9.010  0.190E+00  0.190E+00
   9.020  0.188E+00  0.188E+00
   9.030  0.182E+00  0.182E+00
   9.040  0.174E+00  0.174E+00
   9.050  0.163E+00  0.163E+00
   9.060  0.152E+00  0.152E+00
   9.070  0.142E+00  0.142E+00
   9.080  0.133E+00  0.133E+00
   9.090  0.126E+00  0.126E+00
   9.100  0.122E+00  0.122E+00
   9.110  0.122E+00  0.122E+00
   9.120  0.124E+00  0.124E+00
   9.130  0.129E+00  0.129E+00
   9.140  0.135E+00  0.135E+00
   9.150  0.142E+00  0.142E+00
   9.160  0.148E+00  0.148E+00
   9.170  0.154E+00  0.154E+00
   9.180  0.158E+00  0.158E+00
   9.190  0.160E+00  0.160E+00
   9.200  0.162E+00  0.162E+00
   9.210  0.163E+00  0.163E+00
   9.220  0.165E+00  0.165E+00
   9.230  0.167E+00  0.167E+00
   9.240  0.168E+00  0.168E+00
   9.250  0.169E+00  0.169E+00
   9.260  0.168E+00  0.168E+00
   9.270  0.165E+00  0.165E+00
   9.280  0.160E+00  0.160E+00
   9.290  0.153E+00  0.153E+00
   9.300  0.144E+00  0.144E+00
   9.310  0.135E+00  0.135E+00
   9.320  0.126E+00  0.126E+00
   9.330  0.118E+00  0.118E+00
   9.340  0.111E+00  0.111E+00
   9.350  0.107E+00  0.107E+00
   9.360  0.106E+00  0.106E+00
   9.370  0.106E+00  0.106E+00
   9.380  0.109E+00  0.109E+00
   9.390  0.113E+00  0.113E+00
   9.400  0.119E+00  0.119E+00
   9.410  0.126E+00  0.126E+00
   9.420  0.135E+00  0.135E+00
   9.430  0.144E+00  0.144E+00
   9.440  0.154E+00  0.154E+00
   9.450  0.163E+00  0.163E+00
   9.460  0.172E+00  0.172E+00
   9.470  0.181E+00  0.181E+00
   9.480  0.190E+00  0.190E+00
   9.490  0.198E+00  0.198E+00
   9.500  0.205E+00  0.205E+00
   9.510  0.211E+00  0.211E+00
   9.520  0.217E+00  0.217E+00
   9.530  0.223E+00  0.223E+00
   9.540  0.228E+00  0.228E+00
   9.550  0.232E+00  0.232E+00
   9.560  0.235E+00  0.235E+00
   9.570  0.237E+00  0.237E+00
   9.580  0.237E+00  0.237E+00
   9.590  0.234E+00  0.234E+00
   9.600  0.229E+00  0.229E+00
   9.610  0.220E+00  0.220E+00
   9.620  0.208E+00  0.208E+00
   9.630  0.193E+00  0.193E+00
   9.640  0.176E+00  0.176E+00
   9.650  0.159E+00  0.159E+00
   9.660  0.144E+00  0.144E+00
   9.670  0.130E+00  0.130E+00
   9.680  0.120E+00  0.120E+00
   9.690  0.113E+00  0.113E+00
   9.700  0.110E+00  0.110E+00
   9.710  0.111E+00  0.111E+00
   9.720  0.114E+00  0.114E+00
   9.730  0.118E+00  0.118E+00
   9.740  0.124E+00  0.124E+00
   9.750  0.129E+00  0.129E+00
   9.760  0.134E+00  0.134E+00
   9.770  0.138E+00  0.138E+00
   9.780  0.140E+00  0.140E+00
   9.790  0.142E+00  0.142E+00
   9.800  0.142E+00  0.142E+00
   9.810  0.142E+00  0.142E+00
   9.820  0.142E+00  0.142E+00
   9.830  0.143E+00  0.143E+00
   9.840  0.144E+00  0.144E+00
   9.850  0.148E+00  0.148E+00
   9.860  0.153E+00  0.153E+00
   9.870  0.160E+00  0.160E+00
   9.880  0.168E+00  0.168E+00
   9.890  0.176E+00  0.176E+00
   9.900  0.183E+00  0.183E+00
   9.910  0.189E+00  0.189E+00
   9.920  0.191E+00  0.191E+00
   9.930  0.188E+00  0.188E+00
   9.940  0.181E+00  0.181E+00
   9.950  0.170E+00  0.170E+00
   9.960  0.155E+00  0.155E+00
   9.970  0.138E+00  0.138E+00
   9.980  0.122E+00  0.122E+00
   9.990  0.107E+00  0.107E+00
  10.000  0.943E-01  0.943E-01
  10.010  0.856E-01  0.856E-01
  10.020  0.808E-01  0.808E-01
  10.030  0.793E-01  0.793E-01
  10.040  0.805E-01  0.805E-01
  10.050  0.832E-01  0.832E-01
  10.060  0.866E-01  0.866E-01
  10.070  0.899E-01  0.899E-01
  10.080  0.926E-01  0.926E-01
  10.090  0.947E-01  0.947E-01
  10.100  0.964E-01  0.964E-01
  10.110  0.980E-01  0.980E-01
  10.120  0.998E-01  0.998E-01
  10.130  0.102E+00  0.102E+00
  10.140  0.105E+00  0.105E+00
  10.150  0.108E+00  0.108E+00
  10.160  0.112E+00  0.112E+00
  10.170  0.114E+00  0.114E+00
  10.180  0.116E+00  0.116E+00
  10.190  0.116E+00  0.116E+00
  10.200  0.116E+00  0.116E+00
  10.210  0.115E+00  0.115E+00
  10.220  0.115E+00  0.115E+00
  10.230  0.114E+00  0.114E+00
  10.240  0.114E+00  0.114E+00
  10.250  0.115E+00  0.115E+00
  10.260  0.116E+00  0.116E+00
  10.270  0.116E+00  0.116E+00
  10.280  0.115E+00  0.115E+00
  10.290  0.113E+00  0.113E+00
  10.300  0.109E+00  0.109E+00
  10.310  0.104E+00  0.104E+00
  10.320  0.978E-01  0.978E-01
  10.330  0.916E-01  0.916E-01
  10.340  0.860E-01  0.860E-01
  10.350  0.816E-01  0.816E-01
  10.360  0.788E-01  0.788E-01
  10.370  0.778E-01  0.778E-01
  10.380  0.784E-01  0.784E-01
  10.390  0.805E-01  0.805E-01
  10.400  0.835E-01  0.835E-01
  10.410  0.870E-01  0.870E-01
  10.420  0.906E-01  0.906E-01
  10.430  0.939E-01  0.939E-01
  10.440  0.968E-01  0.968E-01
  10.450  0.991E-01  0.991E-01
  10.460  0.101E+00  0.101E+00
  10.470  0.102E+00  0.102E+00
  10.480  0.103E+00  0.103E+00
  10.490  0.104E+00  0.104E+00
  10.500  0.104E+00  0.104E+00
  10.510  0.105E+00  0.105E+00
  10.520  0.106E+00  0.106E+00
  10.530  0.106E+00  0.106E+00
  10.540  0.106E+00  0.106E+00
  10.550  0.104E+00  0.104E+00
  10.560  0.102E+00  0.102E+00
  10.570  0.986E-01  0.986E-01
  10.580  0.940E-01  0.940E-01
  10.590  0.887E-01  0.887E-01
  10.600  0.832E-01  0.832E-01
  10.610  0.781E-01  0.781E-01
  10.620  0.737E-01  0.737E-01
  10.630  0.705E-01  0.705E-01
  10.640  0.684E-01  0.684E-01
  10.650  0.672E-01  0.672E-01
  10.660  0.669E-01  0.669E-01
  10.670  0.670E-01  0.670E-01
  10.680  0.677E-01  0.677E-01
  10.690  0.691E-01  0.691E-01
  10.700  0.712E-01  0.712E-01
  10.710  0.743E-01  0.743E-01
  10.720  0.785E-01  0.785E-01
  10.730  0.836E-01  0.836E-01
  10.740  0.894E-01  0.894E-01
  10.750  0.956E-01  0.956E-01
  10.760  0.102E+00  0.102E+00
  10.770  0.107E+00  0.107E+00
  10.780  0.112E+00  0.112E+00
  10.790  0.115E+00  0.115E+00
  10.800  0.117E+00  0.117E+00
  10.810  0.118E+00  0.118E+00
  10.820  0.117E+00  0.117E+00
  10.830  0.116E+00  0.116E+00
  10.840  0.114E+00  0.114E+00
  10.850  0.112E+00  0.112E+00
  10.860  0.109E+00  0.109E+00
  10.870  0.107E+00  0.107E+00
  10.880  0.106E+00  0.106E+00
  10.890  0.105E+00  0.105E+00
  10.900  0.104E+00  0.104E+00
  10.910  0.104E+00  0.104E+00
  10.920  0.103E+00  0.103E+00
  10.930  0.102E+00  0.102E+00
  10.940  0.101E+00  0.101E+00
  10.950  0.985E-01  0.985E-01
  10.960  0.958E-01  0.958E-01
  10.970  0.927E-01  0.927E-01
  10.980  0.897E-01  0.897E-01
  10.990  0.871E-01  0.871E-01
  11.000  0.854E-01  0.854E-01
  11.010  0.848E-01  0.848E-01
  11.020  0.852E-01  0.852E-01
  11.030  0.863E-01  0.863E-01
  11.040  0.876E-01  0.876E-01
  11.050  0.885E-01  0.885E-01
  11.060  0.884E-01  0.884E-01
  11.070  0.872E-01  0.872E-01
  11.080  0.848E-01  0.848E-01
  11.090  0.817E-01  0.817E-01
  11.100  0.786E-01  0.786E-01
  11.110  0.762E-01  0.762E-01
  11.120  0.751E-01  0.751E-01
  11.130  0.755E-01  0.755E-01
  11.140  0.774E-01  0.774E-01
  11.150  0.802E-01  0.802E-01
  11.160  0.832E-01  0.832E-01
  11.170  0.857E-01  0.857E-01
  11.180  0.871E-01  0.871E-01
  11.190  0.871E-01  0.871E-01
  11.200  0.859E-01  0.859E-01
  11.210  0.840E-01  0.840E-01
  11.220  0.821E-01  0.821E-01
  11.230  0.809E-01  0.809E-01
  11.240  0.810E-01  0.810E-01
  11.250  0.826E-01  0.826E-01
  11.260  0.854E-01  0.854E-01
  11.270  0.889E-01  0.889E-01
  11.280  0.925E-01  0.925E-01
  11.290  0.954E-01  0.954E-01
  11.300  0.971E-01  0.971E-01
  11.310  0.972E-01  0.972E-01
  11.320  0.960E-01  0.960E-01
  11.330  0.936E-01  0.936E-01
  11.340  0.907E-01  0.907E-01
  11.350  0.880E-01  0.880E-01
  11.360  0.859E-01  0.859E-01
  11.370  0.852E-01  0.852E-01
  11.380  0.860E-01  0.860E-01
  11.390  0.886E-01  0.886E-01
  11.400  0.929E-01  0.929E-01
  11.410  0.986E-01  0.986E-01
  11.420  0.105E+00  0.105E+00
  11.430  0.112E+00  0.112E+00
  11.440  0.118E+00  0.118E+00
  11.450  0.122E+00  0.122E+00
  11.460  0.124E+00  0.124E+00
  11.470  0.124E+00  0.124E+00
  11.480  0.121E+00  0.121E+00
  11.490  0.116E+00  0.116E+00
  11.500  0.109E+00  0.109E+00
  11.510  0.102E+00  0.102E+00
  11.520  0.948E-01  0.948E-01
  11.530  0.887E-01  0.887E-01
  11.540  0.842E-01  0.842E-01
  11.550  0.817E-01  0.817E-01
  11.560  0.811E-01  0.811E-01
  11.570  0.822E-01  0.822E-01
  11.580  0.845E-01  0.845E-01
  11.590  0.871E-01  0.871E-01
  11.600  0.894E-01  0.894E-01
  11.610  0.904E-01  0.904E-01
  11.620  0.896E-01  0.896E-01
  11.630  0.867E-01  0.867E-01
  11.640  0.821E-01  0.821E-01
  11.650  0.761E-01  0.761E-01
  11.660  0.694E-01  0.694E-01
  11.670  0.629E-01  0.629E-01
  11.680  0.570E-01  0.570E-01
  11.690  0.522E-01  0.522E-01
  11.700  0.487E-01  0.487E-01
  11.710  0.465E-01  0.465E-01
  11.720  0.454E-01  0.454E-01
  11.730  0.453E-01  0.453E-01
  11.740  0.461E-01  0.461E-01
  11.750  0.477E-01  0.477E-01
  11.760  0.498E-01  0.498E-01
  11.770  0.523E-01  0.523E-01
  11.780  0.548E-01  0.548E-01
  11.790  0.568E-01  0.568E-01
  11.800  0.581E-01  0.581E-01
  11.810  0.583E-01  0.583E-01
  11.820  0.572E-01  0.572E-01
  11.830  0.550E-01  0.550E-01
  11.840  0.520E-01  0.520E-01
  11.850  0.485E-01  0.485E-01
  11.860  0.452E-01  0.452E-01
  11.870  0.425E-01  0.425E-01
  11.880  0.407E-01  0.407E-01
  11.890  0.403E-01  0.403E-01
  11.900  0.413E-01  0.413E-01
  11.910  0.437E-01  0.437E-01
  11.920  0.471E-01  0.471E-01
  11.930  0.510E-01  0.510E-01
  11.940  0.549E-01  0.549E-01
  11.950  0.580E-01  0.580E-01
  11.960  0.597E-01  0.597E-01
  11.970  0.595E-01  0.595E-01
  11.980  0.573E-01  0.573E-01
  11.990  0.532E-01  0.532E-01
  12.000  0.478E-01  0.478E-01
  12.010  0.419E-01  0.419E-01
  12.020  0.363E-01  0.363E-01
  12.030  0.320E-01  0.320E-01
  12.040  0.294E-01  0.294E-01
  12.050  0.289E-01  0.289E-01
  12.060  0.302E-01  0.302E-01
  12.070  0.331E-01  0.331E-01
  12.080  0.371E-01  0.371E-01
  12.090  0.414E-01  0.414E-01
  12.100  0.457E-01  0.457E-01
  12.110  0.495E-01  0.495E-01
  12.120  0.527E-01  0.527E-01
  12.130  0.553E-01  0.553E-01
  12.140  0.572E-01  0.572E-01
  12.150  0.585E-01  0.585E-01
  12.160  0.592E-01  0.592E-01
  12.170  0.593E-01  0.593E-01
  12.180  0.586E-01  0.586E-01
  12.190  0.570E-01  0.570E-01
  12.200  0.545E-01  0.545E-01
  12.210  0.513E-01  0.513E-01
  12.220  0.475E-01  0.475E-01
  12.230  0.435E-01  0.435E-01
  12.240  0.396E-01  0.396E-01
  12.250  0.363E-01  0.363E-01
  12.260  0.337E-01  0.337E-01
  12.270  0.320E-01  0.320E-01
  12.280  0.312E-01  0.312E-01
  12.290  0.311E-01  0.311E-01
  12.300  0.317E-01  0.317E-01
  12.310  0.327E-01  0.327E-01
  12.320  0.341E-01  0.341E-01
  12.330  0.355E-01  0.355E-01
  12.340  0.371E-01  0.371E-01
  12.350  0.386E-01  0.386E-01
  12.360  0.399E-01  0.399E-01
  12.370  0.411E-01  0.411E-01
  12.380  0.420E-01  0.420E-01
  12.390  0.426E-01  0.426E-01
  12.400  0.427E-01  0.427E-01
  12.410  0.425E-01  0.425E-01
  12.420  0.420E-01  0.420E-01
  12.430  0.414E-01  0.414E-01
  12.440  0.408E-01  0.408E-01
  12.450  0.403E-01  0.403E-01
  12.460  0.401E-01  0.401E-01
  12.470  0.401E-01  0.401E-01
  12.480  0.401E-01  0.401E-01
  12.490  0.400E-01  0.400E-01
  12.500  0.395E-01  0.395E-01
  12.510  0.386E-01  0.386E-01
  12.520  0.373E-01  0.373E-01
  12.530  0.355E-01  0.355E-01
  12.540  0.337E-01  0.337E-01
  12.550  0.320E-01  0.320E-01
  12.560  0.309E-01  0.309E-01
  12.570  0.306E-01  0.306E-01
  12.580  0.313E-01  0.313E-01
  12.590  0.331E-01  0.331E-01
  12.600  0.359E-01  0.359E-01
  12.610  0.393E-01  0.393E-01
  12.620  0.430E-01  0.430E-01
  12.630  0.464E-01  0.464E-01
  12.640  0.491E-01  0.491E-01
  12.650  0.508E-01  0.508E-01
  12.660  0.512E-01  0.512E-01
  12.670  0.503E-01  0.503E-01
  12.680  0.485E-01  0.485E-01
  12.690  0.462E-01  0.462E-01
  12.700  0.440E-01  0.440E-01
  12.710  0.424E-01  0.424E-01
  12.720  0.421E-01  0.421E-01
  12.730  0.432E-01  0.432E-01
  12.740  0.459E-01  0.459E-01
  12.750  0.500E-01  0.500E-01
  12.760  0.550E-01  0.550E-01
  12.770  0.603E-01  0.603E-01
  12.780  0.652E-01  0.652E-01
  12.790  0.691E-01  0.691E-01
  12.800  0.714E-01  0.714E-01
  12.810  0.720E-01  0.720E-01
  12.820  0.707E-01  0.707E-01
  12.830  0.676E-01  0.676E-01
  12.840  0.632E-01  0.632E-01
  12.850  0.578E-01  0.578E-01
  12.860  0.519E-01  0.519E-01
  12.870  0.460E-01  0.460E-01
  12.880  0.405E-01  0.405E-01
  12.890  0.357E-01  0.357E-01
  12.900  0.316E-01  0.316E-01
  12.910  0.284E-01  0.284E-01
  12.920  0.260E-01  0.260E-01
  12.930  0.242E-01  0.242E-01
  12.940  0.228E-01  0.228E-01
  12.950  0.218E-01  0.218E-01
  12.960  0.210E-01  0.210E-01
  12.970  0.203E-01  0.203E-01
  12.980  0.197E-01  0.197E-01
  12.990  0.192E-01  0.192E-01
  13.000  0.188E-01  0.188E-01
  13.010  0.185E-01  0.185E-01
  13.020  0.183E-01  0.183E-01
  13.030  0.182E-01  0.182E-01
  13.040  0.184E-01  0.184E-01
  13.050  0.187E-01  0.187E-01
  13.060  0.192E-01  0.192E-01
  13.070  0.200E-01  0.200E-01
  13.080  0.211E-01  0.211E-01
  13.090  0.222E-01  0.222E-01
  13.100  0.233E-01  0.233E-01
  13.110  0.243E-01  0.243E-01
  13.120  0.248E-01  0.248E-01
  13.130  0.248E-01  0.248E-01
  13.140  0.242E-01  0.242E-01
  13.150  0.230E-01  0.230E-01
  13.160  0.213E-01  0.213E-01
  13.170  0.193E-01  0.193E-01
  13.180  0.173E-01  0.173E-01
  13.190  0.155E-01  0.155E-01
  13.200  0.141E-01  0.141E-01
  13.210  0.132E-01  0.132E-01
  13.220  0.128E-01  0.128E-01
  13.230  0.128E-01  0.128E-01
  13.240  0.132E-01  0.132E-01
  13.250  0.138E-01  0.138E-01
  13.260  0.145E-01  0.145E-01
  13.270  0.153E-01  0.153E-01
  13.280  0.159E-01  0.159E-01
  13.290  0.165E-01  0.165E-01
  13.300  0.169E-01  0.169E-01
  13.310  0.174E-01  0.174E-01
  13.320  0.178E-01  0.178E-01
  13.330  0.182E-01  0.182E-01
  13.340  0.187E-01  0.187E-01
  13.350  0.191E-01  0.191E-01
  13.360  0.193E-01  0.193E-01
  13.370  0.193E-01  0.193E-01
  13.380  0.189E-01  0.189E-01
  13.390  0.180E-01  0.180E-01
  13.400  0.168E-01  0.168E-01
  13.410  0.154E-01  0.154E-01
  13.420  0.140E-01  0.140E-01
  13.430  0.128E-01  0.128E-01
  13.440  0.120E-01  0.120E-01
  13.450  0.118E-01  0.118E-01
  13.460  0.122E-01  0.122E-01
  13.470  0.130E-01  0.130E-01
  13.480  0.141E-01  0.141E-01
  13.490  0.153E-01  0.153E-01
  13.500  0.162E-01  0.162E-01
  13.510  0.168E-01  0.168E-01
  13.520  0.168E-01  0.168E-01
  13.530  0.164E-01  0.164E-01
  13.540  0.156E-01  0.156E-01
  13.550  0.146E-01  0.146E-01
  13.560  0.137E-01  0.137E-01
  13.570  0.131E-01  0.131E-01
  13.580  0.128E-01  0.128E-01
  13.590  0.131E-01  0.131E-01
  13.600  0.137E-01  0.137E-01
  13.610  0.145E-01  0.145E-01
  13.620  0.153E-01  0.153E-01
  13.630  0.160E-01  0.160E-01
  13.640  0.164E-01  0.164E-01
  13.650  0.164E-01  0.164E-01
  13.660  0.159E-01  0.159E-01
  13.670  0.151E-01  0.151E-01
  13.680  0.140E-01  0.140E-01
  13.690  0.127E-01  0.127E-01
  13.700  0.113E-01  0.113E-01
  13.710  0.970E-02  0.970E-02
  13.720  0.810E-02  0.810E-02
  13.730  0.646E-02  0.646E-02
  13.740  0.485E-02  0.485E-02
  13.750  0.332E-02  0.332E-02
  13.760  0.194E-02  0.194E-02
  13.770  0.767E-03  0.767E-03
  13.780 -0.146E-03 -0.146E-03
  13.790 -0.776E-03 -0.776E-03
  13.800 -0.114E-02 -0.114E-02
  13.810 -0.126E-02 -0.126E-02
  13.820 -0.121E-02 -0.121E-02
  13.830 -0.104E-02 -0.104E-02
  13.840 -0.823E-03 -0.823E-03
  13.850 -0.591E-03 -0.591E-03
  13.860 -0.376E-03 -0.376E-03
  13.870 -0.193E-03 -0.193E-03
  13.880 -0.443E-04 -0.443E-04
  13.890  0.756E-04  0.756E-04
  13.900  0.174E-03  0.174E-03
  13.910  0.257E-03  0.257E-03
  13.920  0.330E-03  0.330E-03
  13.930  0.396E-03  0.396E-03
  13.940  0.453E-03  0.453E-03
  13.950  0.500E-03  0.500E-03
  13.960  0.534E-03  0.534E-03
  13.970  0.553E-03  0.553E-03
  13.980  0.557E-03  0.557E-03
  13.990  0.547E-03  0.547E-03
  14.000  0.526E-03  0.526E-03
  14.010  0.497E-03  0.497E-03
  14.020  0.464E-03  0.464E-03
  14.030  0.429E-03  0.429E-03
  14.040  0.392E-03  0.392E-03
  14.050  0.353E-03  0.353E-03
  14.060  0.312E-03  0.312E-03
  14.070  0.267E-03  0.267E-03
  14.080  0.219E-03  0.219E-03
  14.090  0.170E-03  0.170E-03
  14.100  0.122E-03  0.122E-03
  14.110  0.776E-04  0.776E-04
  14.120  0.405E-04  0.405E-04
  14.130  0.126E-04  0.126E-04
  14.140 -0.485E-05 -0.485E-05
  14.150 -0.121E-04 -0.121E-04
  14.160 -0.105E-04 -0.105E-04
  14.170 -0.197E-05 -0.197E-05
  14.180  0.109E-04  0.109E-04
  14.190  0.257E-04  0.257E-04
  14.200  0.402E-04  0.402E-04
  14.210  0.527E-04  0.527E-04
  14.220  0.619E-04  0.619E-04
  14.230  0.673E-04  0.673E-04
  14.240  0.687E-04  0.687E-04
  14.250  0.667E-04  0.667E-04
  14.260  0.616E-04  0.616E-04
  14.270  0.544E-04  0.544E-04
  14.280  0.458E-04  0.458E-04
  14.290  0.364E-04  0.364E-04
  14.300  0.270E-04  0.270E-04
  14.310  0.182E-04  0.182E-04
  14.320  0.104E-04  0.104E-04
  14.330  0.390E-05  0.390E-05
  14.340 -0.981E-06 -0.981E-06
  14.350 -0.424E-05 -0.424E-05
  14.360 -0.602E-05 -0.602E-05
  14.370 -0.658E-05 -0.658E-05
  14.380 -0.626E-05 -0.626E-05
  14.390 -0.540E-05 -0.540E-05
  14.400 -0.431E-05 -0.431E-05
  14.410 -0.321E-05 -0.321E-05
  14.420 -0.226E-05 -0.226E-05
  14.430 -0.150E-05 -0.150E-05
  14.440 -0.938E-06 -0.938E-06
  14.450 -0.559E-06 -0.559E-06
  14.460 -0.316E-06 -0.316E-06
